

 Wavenumbers:   820. - 50000. cm-1, ATM      1
 LEVEL PRESSURE   UPWARD FLUX   DIFDOWN FLUX  DIRDOWN FLUX  DOWNWARD FLUX   NET FLUX    HEATING RATE
          mb          W/m2          W/m2          W/m2        W/m2          W/m2       degree/day
  60   .000300      228.5244        0.0000      837.8224      837.8224     609.297959       0.00000
  59    0.1000      228.5191        0.0107      837.7137      837.7244     609.205337       7.83998
  58    0.1403      228.5171        0.0150      837.6563      837.6714     609.154244      10.69941
  57    0.1968      228.5146        0.0211      837.5614      837.5825     609.067902      12.89646
  56    0.2760      228.5113        0.0295      837.4070      837.4365     608.925174      15.20839
  55    0.3871      228.5072        0.0412      837.1641      837.2053     608.698044      17.25275
  54    0.5430      228.5022        0.0573      836.7876      836.8450     608.342790      19.23053
  53    0.7617      228.4967        0.0794      836.1942      836.2736     607.776944      21.83475
  52     1.069      228.4917        0.1097      835.2926      835.4023     606.910618      23.83001
  51     1.499      228.4899        0.1504      834.0471      834.1975     605.707554      23.59479
  50     2.102      228.4971        0.2050      832.4995      832.7045     604.207486      20.97298
  49     2.949      228.5244        0.2813      830.7483      831.0296     602.505241      16.96845
  48     4.137      228.5855        0.3872      828.8944      829.2816     600.696192      12.85519
  47     5.803      228.6877        0.5342      826.9459      827.4801     598.792407       9.64423
  46     8.139      228.8271        0.7385      824.8978      825.6363     596.809213       7.16244
  45     11.42      228.9916        1.0226      822.7006      823.7231     594.731540       5.34925
  44     16.01      229.1730        1.4168      820.2525      821.6693     592.496308       4.10280
  43     22.46      229.3609        1.9649      817.4463      819.4112     590.050235       3.20078
  42     31.51      229.5061        2.7264      814.2518      816.9782     587.472096       2.40505
  41     44.20      229.5127        3.7867      810.6480      814.4347     584.922017       1.69590
  40     62.00      229.3109        5.2486      806.4553      811.7039     582.393037       1.19903
  39     85.78      228.7682        7.1748      801.7674      808.9422     580.173997       0.78767
  38     109.5      228.0713        9.1029      797.4817      806.5846     578.513328       0.58947
  37     133.1      227.3613       10.9252      793.5510      804.4762     577.114879       0.50220
  36     156.8      226.6502       12.6672      789.8548      802.5220     575.871797       0.44080
  35     180.6      225.8658       14.4879      786.0084      800.4963     574.630490       0.44069
  34     202.8      225.0827       16.2127      782.2124      798.4251     573.342325       0.48909
  33     228.4      224.2710       17.9423      778.0467      795.9890     571.718056       0.53591
  32     252.2      223.4503       19.6470      773.4741      793.1211     569.670736       0.72671
  31     276.0      222.6331       21.3034      768.4389      789.7422     567.109122       0.90927
  30     299.8      221.8065       22.9446      762.7642      785.7088     563.902272       1.13830
  29     323.5      220.9802       24.5610      756.6288      781.1897     560.209510       1.31078
  28     347.3      220.1653       26.1355      750.2254      776.3609     556.195609       1.42477
  27     371.1      219.3655       27.6638      743.7251      771.3889     552.023432       1.48095
  26     394.9      218.5614       29.1871      736.8957      766.0828     547.521432       1.59802
  25     418.6      217.7686       30.6804      729.8721      760.5525     542.783938       1.68162
  24     442.4      216.9881       32.1466      722.6783      754.8249     537.836720       1.75606
  23     466.2      216.2187       33.5911      715.4381      749.0291     532.810479       1.78411
  22     489.9      215.4736       34.9946      708.2772      743.2718     527.798232       1.77914
  21     513.7      214.7440       36.3819      701.0441      737.4260     522.681987       1.81606
  20     537.5      214.0458       37.7322      693.8325      731.5647     517.518952       1.83266
  19     561.3      213.3821       39.0486      686.6319      725.6805     512.298411       1.85308
  18     585.0      212.7415       40.3599      679.3701      719.7300     506.988412       1.88483
  17     608.8      212.1426       41.6354      672.2525      713.8879     501.745261       1.86110
  16     632.6      211.5907       42.8765      665.2624      708.1389     496.548205       1.84474
  15     656.4      211.0863       44.1088      658.1915      702.3002     491.213904       1.89346
  14     680.1      210.6565       45.3074      651.1209      696.4284     485.771873       1.93170
  13     703.9      210.3160       46.4735      644.0582      690.5317     480.215652       1.97223
  12     727.7      210.0839       47.6246      636.8758      684.5004     474.416571       2.05843
  11     751.5      210.0043       48.7599      629.4911      678.2510     468.246666       2.19006
  10     775.2      210.1293       49.8653      621.9804      671.8457     461.716387       2.31798
   9     799.0      210.5302       50.9411      614.3441      665.2852     454.754999       2.47101
   8     822.8      164.4017      117.0650      495.1297      612.1947     447.793056       2.47120
   7     846.6      119.4060      161.9709      399.1789      561.1497     441.743762       2.14725
   6     870.4       75.2832      189.9601      321.9350      511.8951     436.611910       1.82160
   5     894.1       31.7902      204.4302      259.7186      464.1488     432.358622       1.50974
   4     917.9       31.0803      202.9255      256.7349      459.6604     428.580119       1.34121
   3     941.7       30.3813      201.4641      253.8089      455.2730     424.891767       1.30921
   2     965.5       29.7010      200.0485      250.9564      451.0048     421.303787       1.27359
   1     989.2       29.0426      198.6737      248.1749      446.8486     417.806042       1.24129
   0    1013.0       28.4103      197.3353      245.4585      442.7938     414.383461       1.21513



 Wavenumbers:  2600. -  3250. cm-1, ATM      1
 LEVEL PRESSURE   UPWARD FLUX   DIFDOWN FLUX  DIRDOWN FLUX  DOWNWARD FLUX   NET FLUX    HEATING RATE
          mb          W/m2          W/m2          W/m2        W/m2          W/m2       degree/day
  60   .000300        0.8890        0.0000        7.3841        7.3841       6.495035       0.00000
  59    0.1000        0.8890        0.0000        7.3840        7.3840       6.494963       0.00613
  58    0.1403        0.8890        0.0000        7.3840        7.3840       6.494933       0.00614
  57    0.1968        0.8890        0.0000        7.3839        7.3839       6.494892       0.00616
  56    0.2760        0.8890        0.0000        7.3839        7.3839       6.494835       0.00613
  55    0.3871        0.8890        0.0000        7.3838        7.3838       6.494750       0.00641
  54    0.5430        0.8890        0.0000        7.3837        7.3837       6.494625       0.00678
  53    0.7617        0.8890        0.0000        7.3835        7.3835       6.494428       0.00761
  52     1.069        0.8890        0.0000        7.3831        7.3831       6.494098       0.00908
  51     1.499        0.8890        0.0000        7.3825        7.3825       6.493489       0.01193
  50     2.102        0.8890        0.0000        7.3814        7.3814       6.492400       0.01522
  49     2.949        0.8890        0.0000        7.3795        7.3795       6.490515       0.01880
  48     4.137        0.8890        0.0000        7.3765        7.3765       6.487501       0.02142
  47     5.803        0.8890        0.0000        7.3721        7.3721       6.483070       0.02245
  46     8.139        0.8890        0.0000        7.3661        7.3661       6.477062       0.02170
  45     11.42        0.8890        0.0000        7.3586        7.3586       6.469556       0.01933
  44     16.01        0.8890        0.0000        7.3500        7.3500       6.460980       0.01574
  43     22.46        0.8890        0.0000        7.3407        7.3407       6.451664       0.01219
  42     31.51        0.8890        0.0000        7.3297        7.3297       6.440698       0.01023
  41     44.20        0.8891        0.0000        7.3134        7.3134       6.424343       0.01088
  40     62.00        0.8891        0.0000        7.2860        7.2860       6.396929       0.01300
  39     85.78        0.8892        0.0000        7.2438        7.2439       6.354721       0.01498
  38     109.5        0.8892        0.0000        7.1969        7.1970       6.307701       0.01669
  37     133.1        0.8894        0.0001        7.1517        7.1518       6.262439       0.01625
  36     156.8        0.8895        0.0001        7.1092        7.1093       6.219813       0.01512
  35     180.6        0.8896        0.0001        7.0662        7.0663       6.176631       0.01533
  34     202.8        0.8898        0.0001        7.0262        7.0262       6.136402       0.01527
  33     228.4        0.8901        0.0001        6.9846        6.9847       6.094587       0.01380
  32     252.2        0.8905        0.0001        6.9407        6.9408       6.050232       0.01574
  31     276.0        0.8911        0.0001        6.8941        6.8942       6.003147       0.01671
  30     299.8        0.8918        0.0001        6.8424        6.8426       5.950756       0.01860
  29     323.5        0.8927        0.0001        6.7849        6.7851       5.892319       0.02074
  28     347.3        0.8939        0.0001        6.7206        6.7207       5.826846       0.02324
  27     371.1        0.8953        0.0001        6.6496        6.6497       5.754402       0.02571
  26     394.9        0.8971        0.0001        6.5676        6.5677       5.670671       0.02972
  25     418.6        0.8992        0.0002        6.4741        6.4743       5.575116       0.03392
  24     442.4        0.9017        0.0002        6.3671        6.3673       5.465608       0.03887
  23     466.2        0.9047        0.0002        6.2486        6.2487       5.344043       0.04315
  22     489.9        0.9082        0.0002        6.1205        6.1206       5.212487       0.04670
  21     513.7        0.9123        0.0002        5.9812        5.9814       5.069047       0.05092
  20     537.5        0.9172        0.0002        5.8338        5.8340       4.916771       0.05405
  19     561.3        0.9230        0.0002        5.6819        5.6821       4.759058       0.05598
  18     585.0        0.9298        0.0002        5.5274        5.5276       4.597842       0.05722
  17     608.8        0.9375        0.0002        5.3761        5.3763       4.438735       0.05648
  16     632.6        0.9464        0.0002        5.2281        5.2283       4.281888       0.05567
  15     656.4        0.9569        0.0002        5.0791        5.0793       4.122345       0.05663
  14     680.1        0.9694        0.0002        4.9299        4.9301       3.960652       0.05739
  13     703.9        0.9843        0.0002        4.7798        4.7800       3.795692       0.05855
  12     727.7        1.0025        0.0002        4.6253        4.6255       3.622990       0.06130
  11     751.5        1.0254        0.0002        4.4633        4.4635       3.438102       0.06563
  10     775.2        1.0543        0.0002        4.2949        4.2950       3.240790       0.07004
   9     799.0        1.0914        0.0002        4.1205        4.1207       3.029322       0.07506
   8     822.8        0.8284        0.4278        3.2180        3.6458       2.817448       0.07521
   7     846.6        0.5803        0.7005        2.5135        3.2141       2.633751       0.06520
   6     870.4        0.3427        0.8569        1.9649        2.8218       2.479073       0.05490
   5     894.1        0.1116        0.9270        1.5372        2.4642       2.352579       0.04490
   4     917.9        0.1148        0.8835        1.4737        2.3572       2.242363       0.03912
   3     941.7        0.1185        0.8426        1.4128        2.2553       2.136879       0.03744
   2     965.5        0.1227        0.8040        1.3547        2.1587       2.035962       0.03582
   1     989.2        0.1277        0.7675        1.2995        2.0670       1.939274       0.03431
   0    1013.0        0.1336        0.7329        1.2466        1.9795       1.845832       0.03318



 Wavenumbers:  3250. -  4000. cm-1, ATM      1
 LEVEL PRESSURE   UPWARD FLUX   DIFDOWN FLUX  DIRDOWN FLUX  DOWNWARD FLUX   NET FLUX    HEATING RATE
          mb          W/m2          W/m2          W/m2        W/m2          W/m2       degree/day
  60   .000300        0.0090        0.0000       12.4485       12.4485      12.439511       0.00000
  59    0.1000        0.0090        0.0000       12.4290       12.4290      12.420008       1.65079
  58    0.1403        0.0090        0.0000       12.4252       12.4252      12.416294       0.77776
  57    0.1968        0.0090        0.0000       12.4208       12.4208      12.411822       0.66803
  56    0.2760        0.0090        0.0000       12.4156       12.4156      12.406659       0.55013
  55    0.3871        0.0090        0.0000       12.4096       12.4096      12.400626       0.45825
  54    0.5430        0.0090        0.0000       12.4022       12.4022      12.393298       0.39669
  53    0.7617        0.0090        0.0000       12.3928       12.3928      12.383837       0.36506
  52     1.069        0.0089        0.0000       12.3807       12.3807      12.371797       0.33119
  51     1.499        0.0089        0.0000       12.3664       12.3664      12.357440       0.28159
  50     2.102        0.0089        0.0000       12.3498       12.3498      12.340806       0.23256
  49     2.949        0.0089        0.0000       12.3302       12.3302      12.321271       0.19473
  48     4.137        0.0089        0.0000       12.3067       12.3068      12.297806       0.16675
  47     5.803        0.0089        0.0000       12.2766       12.2766      12.267688       0.15257
  46     8.139        0.0089        0.0000       12.2347       12.2348      12.225820       0.15121
  45     11.42        0.0089        0.0000       12.1733       12.1733      12.164406       0.15812
  44     16.01        0.0089        0.0000       12.0830       12.0830      12.074096       0.16577
  43     22.46        0.0089        0.0000       11.9527       11.9527      11.943805       0.17049
  42     31.51        0.0089        0.0000       11.7748       11.7748      11.765921       0.16594
  41     44.20        0.0089        0.0001       11.5551       11.5552      11.546284       0.14607
  40     62.00        0.0089        0.0001       11.3050       11.3051      11.296216       0.11856
  39     85.78        0.0088        0.0001       11.0142       11.0143      11.005428       0.10322
  38     109.5        0.0088        0.0001       10.7175       10.7176      10.708808       0.10529
  37     133.1        0.0088        0.0002       10.4459       10.4460      10.437261       0.09752
  36     156.8        0.0088        0.0002       10.1944       10.1946      10.185873       0.08914
  35     180.6        0.0087        0.0002        9.9218        9.9220       9.913315       0.09676
  34     202.8        0.0087        0.0002        9.5970        9.5973       9.588544       0.12331
  33     228.4        0.0087        0.0002        9.1820        9.1823       9.173606       0.13690
  32     252.2        0.0087        0.0003        8.7004        8.7006       8.691962       0.17096
  31     276.0        0.0087        0.0003        8.1693        8.1695       8.160883       0.18851
  30     299.8        0.0086        0.0003        7.5886        7.5889       7.580221       0.20611
  29     323.5        0.0087        0.0003        6.9823        6.9825       6.973874       0.21523
  28     347.3        0.0087        0.0003        6.3629        6.3631       6.354435       0.21988
  27     371.1        0.0087        0.0002        5.7699        5.7701       5.761421       0.21050
  26     394.9        0.0088        0.0002        5.2041        5.2043       5.195525       0.20087
  25     418.6        0.0088        0.0002        4.6962        4.6964       4.687531       0.18032
  24     442.4        0.0090        0.0002        4.2409        4.2411       4.232144       0.16164
  23     466.2        0.0091        0.0002        3.8328        3.8330       3.823832       0.14493
  22     489.9        0.0093        0.0002        3.4648        3.4650       3.455700       0.13067
  21     513.7        0.0096        0.0002        3.1218        3.1220       3.112375       0.12187
  20     537.5        0.0100        0.0002        2.8040        2.8042       2.794199       0.11294
  19     561.3        0.0104        0.0002        2.5083        2.5084       2.497969       0.10515
  18     585.0        0.0111        0.0001        2.2301        2.2302       2.219159       0.09897
  17     608.8        0.0118        0.0001        1.9731        1.9732       1.961355       0.09151
  16     632.6        0.0129        0.0001        1.7337        1.7338       1.720995       0.08532
  15     656.4        0.0142        0.0001        1.5041        1.5042       1.490030       0.08198
  14     680.1        0.0160        0.0001        1.2888        1.2888       1.272851       0.07709
  13     703.9        0.0185        0.0001        1.0908        1.0909       1.072383       0.07116
  12     727.7        0.0220        0.0001        0.9082        0.9083       0.886261       0.06607
  11     751.5        0.0273        0.0001        0.7390        0.7391       0.711801       0.06193
  10     775.2        0.0354        0.0000        0.5856        0.5857       0.550261       0.05734
   9     799.0        0.0486        0.0000        0.4484        0.4484       0.399869       0.05338
   8     822.8        0.0293        0.0306        0.2687        0.2993       0.269987       0.04610
   7     846.6        0.0163        0.0362        0.1567        0.1929       0.176618       0.03314
   6     870.4        0.0072        0.0309        0.0888        0.1197       0.112509       0.02276
   5     894.1        0.0000        0.0225        0.0487        0.0713       0.071258       0.01464
   4     917.9        0.0000        0.0131        0.0315        0.0446       0.044626       0.00945
   3     941.7        0.0000        0.0073        0.0194        0.0267       0.026656       0.00638
   2     965.5        0.0000        0.0038        0.0114        0.0152       0.015178       0.00407
   1     989.2        0.0001        0.0019        0.0064        0.0083       0.008186       0.00248
   0    1013.0        0.0002        0.0009        0.0034        0.0043       0.004085       0.00146



 Wavenumbers:  4000. -  4650. cm-1, ATM      1
 LEVEL PRESSURE   UPWARD FLUX   DIFDOWN FLUX  DIRDOWN FLUX  DOWNWARD FLUX   NET FLUX    HEATING RATE
          mb          W/m2          W/m2          W/m2        W/m2          W/m2       degree/day
  60   .000300        2.9421        0.0000       14.6183       14.6183      11.676140       0.00000
  59    0.1000        2.9421        0.0000       14.6182       14.6182      11.676131       0.00076
  58    0.1403        2.9421        0.0000       14.6182       14.6182      11.676127       0.00076
  57    0.1968        2.9421        0.0000       14.6182       14.6182      11.676122       0.00077
  56    0.2760        2.9421        0.0000       14.6182       14.6182      11.676115       0.00076
  55    0.3871        2.9421        0.0000       14.6182       14.6182      11.676104       0.00080
  54    0.5430        2.9421        0.0000       14.6182       14.6182      11.676089       0.00085
