

 Wavenumbers:   820. - 50000. cm-1, ATM      1
 LEVEL PRESSURE   UPWARD FLUX   DIFDOWN FLUX  DIRDOWN FLUX  DOWNWARD FLUX   NET FLUX    HEATING RATE
          mb          W/m2          W/m2          W/m2        W/m2          W/m2       degree/day
  60   .000300      228.4957        0.0000      837.8224      837.8224     609.326701       0.00000
  59    0.1000      228.4903        0.0107      837.7137      837.7244     609.234081       7.83984
  58    0.1403      228.4884        0.0150      837.6563      837.6714     609.182989      10.69913
  57    0.1968      228.4858        0.0211      837.5614      837.5825     609.096650      12.89609
  56    0.2760      228.4826        0.0295      837.4070      837.4365     608.953926      15.20793
  55    0.3871      228.4785        0.0412      837.1641      837.2053     608.726803      17.25220
  54    0.5430      228.4734        0.0573      836.7876      836.8450     608.371561      19.22989
  53    0.7617      228.4679        0.0795      836.1942      836.2736     607.805735      21.83395
  52     1.069      228.4629        0.1097      835.2926      835.4023     606.939447      23.82899
  51     1.499      228.4610        0.1504      834.0471      834.1975     605.736449      23.59349
  50     2.102      228.4681        0.2050      832.4995      832.7046     604.236503      20.97127
  49     2.949      228.4951        0.2813      830.7483      831.0296     602.534489      16.96615
  48     4.137      228.5558        0.3873      828.8944      829.2817     600.725841      12.85235
  47     5.803      228.6575        0.5342      826.9459      827.4801     598.822672       9.64111
  46     8.139      228.7960        0.7385      824.8978      825.6364     596.840319       7.15940
  45     11.42      228.9595        1.0227      822.7006      823.7232     594.763702       5.34654
  44     16.01      229.1397        1.4170      820.2525      821.6694     592.529748       4.10046
  43     22.46      229.3262        1.9650      817.4463      819.4113     590.085186       3.19880
  42     31.51      229.4698        2.7267      814.2518      816.9785     587.508689       2.40352
  41     44.20      229.4749        3.7871      810.6480      814.4351     584.960175       1.69486
  40     62.00      229.2719        5.2491      806.4553      811.7045     582.432618       1.19835
  39     85.78      228.7284        7.1756      801.7674      808.9430     580.214593       0.78731
  38     109.5      228.0313        9.1040      797.4817      806.5857     578.554332       0.58932
  37     133.1      227.3214       10.9266      793.5510      804.4775     577.156170       0.50210
  36     156.8      226.6103       12.6688      789.8548      802.5236     575.913303       0.44072
  35     180.6      225.8260       14.4898      786.0084      800.4982     574.672154       0.44063
  34     202.8      225.0431       16.2148      782.2124      798.4272     573.384079       0.48906
  33     228.4      224.2316       17.9448      778.0467      795.9915     571.759867       0.53589
  32     252.2      223.4112       19.6497      773.4741      793.1238     569.712581       0.72670
  31     276.0      222.5943       21.3064      768.4389      789.7453     567.150977       0.90926
  30     299.8      221.7680       22.9479      762.7642      785.7121     563.944117       1.13830
  29     323.5      220.9420       24.5646      756.6288      781.1933     560.251326       1.31079
  28     347.3      220.1275       26.1394      750.2254      776.3648     556.237378       1.42479
  27     371.1      219.3280       27.6680      743.7251      771.3931     552.065136       1.48097
  26     394.9      218.5243       29.1916      736.8957      766.0873     547.563050       1.59805
  25     418.6      217.7319       30.6852      729.8721      760.5573     542.825449       1.68165
  24     442.4      216.9519       32.1517      722.6783      754.8300     537.878099       1.75611
  23     466.2      216.1829       33.5965      715.4381      749.0346     532.851699       1.78417
  22     489.9      215.4383       35.0004      708.2772      743.2776     527.839263       1.77921
  21     513.7      214.7093       36.3880      701.0441      737.4321     522.722792       1.81614
  20     537.5      214.0116       37.7387      693.8325      731.5711     517.559491       1.83276
  19     561.3      213.3486       39.0553      686.6319      725.6873     512.338637       1.85319
  18     585.0      212.7087       40.3669      679.3701      719.7370     507.028266       1.88496
  17     608.8      212.1106       41.6428      672.2525      713.8953     501.784699       1.86125
  16     632.6      211.5594       42.8842      665.2624      708.1466     496.587177       1.84491
  15     656.4      211.0559       44.1168      658.1915      702.3082     491.252337       1.89365
  14     680.1      210.6270       45.3158      651.1209      696.4367     485.809689       1.93192
  13     703.9      210.2876       46.4822      644.0582      690.5404     480.252759       1.97248
  12     727.7      210.0566       47.6336      636.8758      684.5094     474.452847       2.05873
  11     751.5      209.9783       48.7692      629.4911      678.2603     468.281964       2.19041
  10     775.2      210.1048       49.8750      621.9804      671.8553     461.750542       2.31839
   9     799.0      210.5074       50.9510      614.3441      665.2952     454.787813       2.47148
   8     822.8      164.3778      117.0723      495.1297      612.2020     447.824164       2.47181
   7     846.6      119.3816      161.9754      399.1789      561.1543     441.772691       2.14802
   6     870.4       75.2588      189.9620      321.9350      511.8969     436.638130       1.82256
   5     894.1       31.7665      204.4295      259.7186      464.1481     432.381524       1.51092
   4     917.9       31.0601      202.9244      256.7349      459.6593     428.599159       1.34258
   3     941.7       30.3650      201.4626      253.8089      455.2715     424.906537       1.31073
   2     965.5       29.6890      200.0465      250.9564      451.0029     421.313851       1.27526
   1     989.2       29.0353      198.6713      248.1749      446.8462     417.810897       1.24314
   0    1013.0       28.4084      197.3323      245.4585      442.7909     414.382507       1.21719



 Wavenumbers:  2600. -  3250. cm-1, ATM      1
 LEVEL PRESSURE   UPWARD FLUX   DIFDOWN FLUX  DIRDOWN FLUX  DOWNWARD FLUX   NET FLUX    HEATING RATE
          mb          W/m2          W/m2          W/m2        W/m2          W/m2       degree/day
  60   .000300        0.8667        0.0000        7.3841        7.3841       6.517367       0.00000
  59    0.1000        0.8667        0.0000        7.3840        7.3840       6.517294       0.00613
  58    0.1403        0.8667        0.0000        7.3840        7.3840       6.517265       0.00614
  57    0.1968        0.8667        0.0000        7.3839        7.3839       6.517224       0.00616
  56    0.2760        0.8667        0.0000        7.3839        7.3839       6.517166       0.00613
  55    0.3871        0.8667        0.0000        7.3838        7.3838       6.517082       0.00641
  54    0.5430        0.8667        0.0000        7.3837        7.3837       6.516957       0.00678
  53    0.7617        0.8667        0.0000        7.3835        7.3835       6.516759       0.00761
  52     1.069        0.8667        0.0000        7.3831        7.3831       6.516429       0.00908
  51     1.499        0.8667        0.0000        7.3825        7.3825       6.515821       0.01193
  50     2.102        0.8667        0.0000        7.3814        7.3814       6.514732       0.01522
  49     2.949        0.8667        0.0000        7.3795        7.3795       6.512846       0.01880
  48     4.137        0.8667        0.0000        7.3765        7.3765       6.509832       0.02142
  47     5.803        0.8667        0.0000        7.3721        7.3721       6.505402       0.02245
  46     8.139        0.8667        0.0000        7.3661        7.3661       6.499394       0.02170
  45     11.42        0.8667        0.0000        7.3586        7.3586       6.491888       0.01933
  44     16.01        0.8667        0.0000        7.3500        7.3500       6.483312       0.01574
  43     22.46        0.8667        0.0000        7.3407        7.3407       6.473995       0.01219
  42     31.51        0.8667        0.0000        7.3297        7.3297       6.463030       0.01023
  41     44.20        0.8667        0.0000        7.3134        7.3134       6.446676       0.01088
  40     62.00        0.8668        0.0000        7.2860        7.2860       6.419262       0.01300
  39     85.78        0.8668        0.0000        7.2438        7.2439       6.377055       0.01498
  38     109.5        0.8669        0.0000        7.1969        7.1970       6.330037       0.01669
  37     133.1        0.8670        0.0001        7.1517        7.1518       6.284776       0.01625
  36     156.8        0.8671        0.0001        7.1092        7.1093       6.242152       0.01511
  35     180.6        0.8673        0.0001        7.0662        7.0663       6.198973       0.01533
  34     202.8        0.8675        0.0001        7.0262        7.0262       6.158747       0.01527
  33     228.4        0.8678        0.0001        6.9846        6.9847       6.116938       0.01379
  32     252.2        0.8682        0.0001        6.9407        6.9408       6.072590       0.01574
  31     276.0        0.8687        0.0001        6.8941        6.8942       6.025515       0.01671
  30     299.8        0.8694        0.0001        6.8424        6.8426       5.973136       0.01859
  29     323.5        0.8703        0.0001        6.7849        6.7851       5.914716       0.02074
  28     347.3        0.8715        0.0001        6.7206        6.7207       5.849263       0.02323
  27     371.1        0.8729        0.0001        6.6496        6.6497       5.776843       0.02571
  26     394.9        0.8746        0.0001        6.5676        6.5677       5.693141       0.02971
  25     418.6        0.8767        0.0002        6.4741        6.4743       5.597621       0.03391
  24     442.4        0.8791        0.0002        6.3671        6.3673       5.488154       0.03886
  23     466.2        0.8821        0.0002        6.2486        6.2487       5.366636       0.04313
  22     489.9        0.8855        0.0002        6.1205        6.1206       5.235134       0.04668
  21     513.7        0.8896        0.0002        5.9812        5.9814       5.091758       0.05089
  20     537.5        0.8944        0.0002        5.8338        5.8340       4.939557       0.05403
  19     561.3        0.9001        0.0002        5.6819        5.6821       4.781929       0.05595
  18     585.0        0.9068        0.0002        5.5274        5.5276       4.620813       0.05719
  17     608.8        0.9144        0.0002        5.3761        5.3763       4.461818       0.05644
  16     632.6        0.9232        0.0002        5.2281        5.2283       4.305096       0.05563
  15     656.4        0.9336        0.0002        5.0791        5.0793       4.145699       0.05658
  14     680.1        0.9459        0.0002        4.9299        4.9301       3.984175       0.05733
  13     703.9        0.9606        0.0002        4.7798        4.7800       3.819409       0.05849
  12     727.7        0.9785        0.0002        4.6253        4.6255       3.646936       0.06122
  11     751.5        1.0011        0.0002        4.4633        4.4635       3.462323       0.06553
  10     775.2        1.0297        0.0002        4.2949        4.2950       3.265342       0.06992
   9     799.0        1.0664        0.0002        4.1205        4.1207       3.054271       0.07492
   8     822.8        0.8006        0.4255        3.2180        3.6435       2.842916       0.07502
   7     846.6        0.5495        0.6958        2.5135        3.2094       2.659901       0.06496
   6     870.4        0.3087        0.8499        1.9649        2.8148       2.506090       0.05460
   5     894.1        0.0741        0.9176        1.5372        2.4548       2.380685       0.04451
   4     917.9        0.0762        0.8743        1.4737        2.3480       2.271768       0.03866
   3     941.7        0.0786        0.8336        1.4128        2.2464       2.167755       0.03692
   2     965.5        0.0814        0.7952        1.3547        2.1500       2.068514       0.03523
   1     989.2        0.0847        0.7590        1.2995        2.0585       1.973755       0.03363
   0    1013.0        0.0887        0.7247        1.2466        1.9712       1.882560       0.03238



 Wavenumbers:  3250. -  4000. cm-1, ATM      1
 LEVEL PRESSURE   UPWARD FLUX   DIFDOWN FLUX  DIRDOWN FLUX  DOWNWARD FLUX   NET FLUX    HEATING RATE
          mb          W/m2          W/m2          W/m2        W/m2          W/m2       degree/day
  60   .000300        0.0090        0.0000       12.4485       12.4485      12.439511       0.00000
  59    0.1000        0.0090        0.0000       12.4290       12.4290      12.420008       1.65079
  58    0.1403        0.0090        0.0000       12.4252       12.4252      12.416294       0.77776
  57    0.1968        0.0090        0.0000       12.4208       12.4208      12.411822       0.66803
  56    0.2760        0.0090        0.0000       12.4156       12.4156      12.406659       0.55013
  55    0.3871        0.0090        0.0000       12.4096       12.4096      12.400626       0.45825
  54    0.5430        0.0090        0.0000       12.4022       12.4022      12.393298       0.39669
  53    0.7617        0.0090        0.0000       12.3928       12.3928      12.383837       0.36506
  52     1.069        0.0089        0.0000       12.3807       12.3807      12.371797       0.33119
  51     1.499        0.0089        0.0000       12.3664       12.3664      12.357440       0.28159
  50     2.102        0.0089        0.0000       12.3498       12.3498      12.340806       0.23256
  49     2.949        0.0089        0.0000       12.3302       12.3302      12.321271       0.19473
  48     4.137        0.0089        0.0000       12.3067       12.3068      12.297806       0.16675
  47     5.803        0.0089        0.0000       12.2766       12.2766      12.267688       0.15257
  46     8.139        0.0089        0.0000       12.2347       12.2348      12.225820       0.15121
  45     11.42        0.0089        0.0000       12.1733       12.1733      12.164406       0.15812
  44     16.01        0.0089        0.0000       12.0830       12.0830      12.074096       0.16577
  43     22.46        0.0089        0.0000       11.9527       11.9527      11.943805       0.17049
  42     31.51        0.0089        0.0000       11.7748       11.7748      11.765921       0.16594
  41     44.20        0.0089        0.0001       11.5551       11.5552      11.546284       0.14607
  40     62.00        0.0089        0.0001       11.3050       11.3051      11.296216       0.11856
  39     85.78        0.0088        0.0001       11.0142       11.0143      11.005428       0.10322
  38     109.5        0.0088        0.0001       10.7175       10.7176      10.708808       0.10529
  37     133.1        0.0088        0.0002       10.4459       10.4460      10.437261       0.09752
  36     156.8        0.0088        0.0002       10.1944       10.1946      10.185873       0.08914
  35     180.6        0.0087        0.0002        9.9218        9.9220       9.913315       0.09676
  34     202.8        0.0087        0.0002        9.5970        9.5973       9.588544       0.12331
  33     228.4        0.0087        0.0002        9.1820        9.1823       9.173606       0.13690
  32     252.2        0.0087        0.0003        8.7004        8.7006       8.691962       0.17096
  31     276.0        0.0087        0.0003        8.1693        8.1695       8.160883       0.18851
  30     299.8        0.0086        0.0003        7.5886        7.5889       7.580221       0.20611
  29     323.5        0.0087        0.0003        6.9823        6.9825       6.973874       0.21523
  28     347.3        0.0087        0.0003        6.3629        6.3631       6.354435       0.21988
  27     371.1        0.0087        0.0002        5.7699        5.7701       5.761421       0.21050
  26     394.9        0.0088        0.0002        5.2041        5.2043       5.195525       0.20087
  25     418.6        0.0088        0.0002        4.6962        4.6964       4.687531       0.18032
  24     442.4        0.0090        0.0002        4.2409        4.2411       4.232144       0.16164
  23     466.2        0.0091        0.0002        3.8328        3.8330       3.823832       0.14493
  22     489.9        0.0093        0.0002        3.4648        3.4650       3.455700       0.13067
  21     513.7        0.0096        0.0002        3.1218        3.1220       3.112375       0.12187
  20     537.5        0.0100        0.0002        2.8040        2.8042       2.794199       0.11294
  19     561.3        0.0104        0.0002        2.5083        2.5084       2.497969       0.10515
  18     585.0        0.0111        0.0001        2.2301        2.2302       2.219159       0.09897
  17     608.8        0.0118        0.0001        1.9731        1.9732       1.961355       0.09151
  16     632.6        0.0129        0.0001        1.7337        1.7338       1.720995       0.08532
  15     656.4        0.0142        0.0001        1.5041        1.5042       1.490030       0.08198
  14     680.1        0.0160        0.0001        1.2888        1.2888       1.272851       0.07709
  13     703.9        0.0185        0.0001        1.0908        1.0909       1.072383       0.07116
  12     727.7        0.0220        0.0001        0.9082        0.9083       0.886261       0.06607
  11     751.5        0.0273        0.0001        0.7390        0.7391       0.711801       0.06193
  10     775.2        0.0354        0.0000        0.5856        0.5857       0.550261       0.05734
   9     799.0        0.0486        0.0000        0.4484        0.4484       0.399869       0.05338
   8     822.8        0.0293        0.0306        0.2687        0.2993       0.269987       0.04610
   7     846.6        0.0163        0.0362        0.1567        0.1929       0.176618       0.03314
   6     870.4        0.0072        0.0309        0.0888        0.1197       0.112510       0.02276
   5     894.1        0.0000        0.0225        0.0487        0.0713       0.071258       0.01464
   4     917.9        0.0000        0.0131        0.0315        0.0446       0.044627       0.00945
   3     941.7        0.0000        0.0073        0.0194        0.0267       0.026658       0.00638
   2     965.5        0.0000        0.0038        0.0114        0.0152       0.015181       0.00407
   1     989.2        0.0001        0.0019        0.0064        0.0083       0.008192       0.00248
   0    1013.0        0.0002        0.0009        0.0034        0.0043       0.004098       0.00145



 Wavenumbers:  4000. -  4650. cm-1, ATM      1
 LEVEL PRESSURE   UPWARD FLUX   DIFDOWN FLUX  DIRDOWN FLUX  DOWNWARD FLUX   NET FLUX    HEATING RATE
          mb          W/m2          W/m2          W/m2        W/m2          W/m2       degree/day
  60   .000300        2.9761        0.0000       14.6183       14.6183      11.642135       0.00000
  59    0.1000        2.9761        0.0000       14.6182       14.6182      11.642126       0.00076
  58    0.1403        2.9761        0.0000       14.6182       14.6182      11.642122       0.00076
  57    0.1968        2.9761        0.0000       14.6182       14.6182      11.642117       0.00077
  56    0.2760        2.9761        0.0000       14.6182       14.6182      11.642110       0.00076
  55    0.3871        2.9761        0.0000       14.6182       14.6182      11.642100       0.00080
  54    0.5430        2.9761        0.0000       14.6182       14.6182      11.642084       0.00085
