

 Wavenumbers:   820. - 50000. cm-1, ATM      1
 LEVEL PRESSURE   UPWARD FLUX   DIFDOWN FLUX  DIRDOWN FLUX  DOWNWARD FLUX   NET FLUX    HEATING RATE
          mb          W/m2          W/m2          W/m2        W/m2          W/m2       degree/day
  60   .000300      148.7589        0.0000      837.8224      837.8224     689.063446       0.00000
  59    0.1000      148.7529        0.0102      837.7137      837.7239     688.970969       7.82777
  58    0.1403      148.7506        0.0143      837.6563      837.6706     688.919986      10.67617
  57    0.1968      148.7476        0.0200      837.5614      837.5814     688.833844      12.86673
  56    0.2760      148.7436        0.0280      837.4070      837.4350     688.691464      15.17131
  55    0.3871      148.7383        0.0391      837.1641      837.2032     688.464919      17.20829
  54    0.5430      148.7314        0.0544      836.7876      836.8421     688.110645      19.17750
  53    0.7617      148.7230        0.0754      836.1942      836.2696     687.546525      21.76814
  52     1.069      148.7133        0.1040      835.2926      835.3966     686.683295      23.74485
  51     1.499      148.7037        0.1424      834.0471      834.1895     685.485755      23.48644
  50     2.102      148.6977        0.1939      832.4995      832.6934     683.995738      20.83246
  49     2.949      148.7018        0.2657      830.7483      831.0140     682.312159      16.78238
  48     4.137      148.7245        0.3654      828.8944      829.2598     680.535247      12.62683
  47     5.803      148.7688        0.5035      826.9459      827.4494     678.680670       9.39495
  46     8.139      148.8285        0.6955      824.8978      825.5933     676.764825       6.91920
  45     11.42      148.8906        0.9623      822.7006      823.6629     674.772241       5.13018
  44     16.01      148.9434        1.3324      820.2525      821.5849     672.641470       3.91106
  43     22.46      148.9710        1.8464      817.4463      819.2928     670.321798       3.03537
  42     31.51      148.9262        2.5603      814.2518      816.8120     667.885882       2.27238
  41     44.20      148.7227        3.5532      810.6480      814.2012     665.478468       1.60102
  40     62.00      148.2885        4.9208      806.4553      811.3761     663.087685       1.13351
  39     85.78      147.5121        6.7205      801.7674      808.4879     660.975809       0.74963
  38     109.5      146.6176        8.5192      797.4817      806.0009     659.383324       0.56527
  37     133.1      145.7290       10.2168      793.5510      803.7678     658.038763       0.48285
  36     156.8      144.8502       11.8371      789.8548      801.6919     656.841750       0.42446
  35     180.6      143.8960       13.5284      786.0084      799.5367     655.640778       0.42637
  34     202.8      142.9574       15.1281      782.2124      797.3405     654.383083       0.47752
  33     228.4      141.9907       16.7300      778.0467      794.7767     652.785950       0.52695
  32     252.2      141.0165       18.3063      773.4741      791.7804     650.763896       0.71775
  31     276.0      140.0489       19.8356      768.4389      788.2745     648.225601       0.90099
  30     299.8      139.0710       21.3485      762.7642      784.1127     645.041780       1.13013
  29     323.5      138.0915       22.8361      756.6288      779.4649     641.373408       1.30212
  28     347.3      137.1223       24.2828      750.2254      774.5082     637.385883       1.41541
  27     371.1      136.1675       25.6847      743.7251      769.4098     633.242281       1.47081
  26     394.9      135.2025       27.0795      736.8957      763.9752     628.772781       1.58649
  25     418.6      134.2443       28.4445      729.8721      758.3166     624.072326       1.66847
  24     442.4      133.2926       29.7822      722.6783      752.4605     619.167907       1.74087
  23     466.2      132.3448       31.0977      715.4381      746.5358     614.190977       1.76661
  22     489.9      131.4154       32.3735      708.2772      740.6507     609.235280       1.75907
  21     513.7      130.4904       33.6321      701.0441      734.6762     604.185772       1.79237
  20     537.5      129.5862       34.8547      693.8325      728.6872     599.100939       1.80491
  19     561.3      128.7036       36.0441      686.6319      722.6760     593.972433       1.82041
  18     585.0      127.8247       37.2264      679.3701      716.5965     588.771806       1.84601
  17     608.8      126.9720       38.3742      672.2525      710.6266     583.654626       1.81639
  16     632.6      126.1479       39.4884      665.2624      704.7508     578.602963       1.79313
  15     656.4      125.3413       40.5924      658.1915      698.7838     573.442550       1.83173
  14     680.1      124.5767       41.6637      651.1209      692.7846     568.207960       1.85806
  13     703.9      123.8612       42.7034      644.0582      686.7616     562.900388       1.88397
  12     727.7      123.1959       43.7273      636.8758      680.6031     557.407230       1.94984
  11     751.5      122.6024       44.7345      629.4911      674.2256     551.623160       2.05311
  10     775.2      122.1126       45.7126      621.9804      667.6929     545.580301       2.14497
   9     799.0      121.7606       46.6617      614.3441      661.0058     539.245233       2.24869
   8     822.8       99.5177       73.0528      559.2914      632.3442     532.826425       2.27841
   7     846.6       77.5325       95.2037      509.3230      604.5268     526.994254       2.07018
   6     870.4       55.7600      113.4888      464.0032      577.4920     521.731995       1.86789
   5     894.1       34.1461      128.3096      422.8401      551.1496     517.003570       1.67840
   4     917.9       33.2923      127.8863      417.9828      545.8691     512.576785       1.57133
   3     941.7       32.4503      127.4773      413.2196      540.6969     508.246625       1.53703
   2     965.5       31.6291      127.0812      408.5759      535.6571     504.027957       1.49745
   1     989.2       30.8323      126.6957      404.0479      530.7436     499.911339       1.46092
   0    1013.0       30.0646      126.3184      399.6259      525.9443     495.879765       1.43134



 Wavenumbers:  2600. -  3250. cm-1, ATM      1
 LEVEL PRESSURE   UPWARD FLUX   DIFDOWN FLUX  DIRDOWN FLUX  DOWNWARD FLUX   NET FLUX    HEATING RATE
          mb          W/m2          W/m2          W/m2        W/m2          W/m2       degree/day
  60   .000300        0.4825        0.0000        7.3841        7.3841       6.901524       0.00000
  59    0.1000        0.4825        0.0000        7.3840        7.3840       6.901452       0.00613
  58    0.1403        0.4825        0.0000        7.3840        7.3840       6.901422       0.00614
  57    0.1968        0.4825        0.0000        7.3839        7.3839       6.901381       0.00616
  56    0.2760        0.4825        0.0000        7.3839        7.3839       6.901323       0.00613
  55    0.3871        0.4825        0.0000        7.3838        7.3838       6.901239       0.00641
  54    0.5430        0.4825        0.0000        7.3837        7.3837       6.901114       0.00678
  53    0.7617        0.4825        0.0000        7.3835        7.3835       6.900916       0.00761
  52     1.069        0.4825        0.0000        7.3831        7.3831       6.900586       0.00908
  51     1.499        0.4825        0.0000        7.3825        7.3825       6.899978       0.01193
  50     2.102        0.4825        0.0000        7.3814        7.3814       6.898889       0.01522
  49     2.949        0.4825        0.0000        7.3795        7.3795       6.897004       0.01880
  48     4.137        0.4825        0.0000        7.3765        7.3765       6.893990       0.02142
  47     5.803        0.4825        0.0000        7.3721        7.3721       6.889559       0.02245
  46     8.139        0.4825        0.0000        7.3661        7.3661       6.883552       0.02170
  45     11.42        0.4825        0.0000        7.3586        7.3586       6.876046       0.01932
  44     16.01        0.4825        0.0000        7.3500        7.3500       6.867471       0.01574
  43     22.46        0.4825        0.0000        7.3407        7.3407       6.858157       0.01219
  42     31.51        0.4825        0.0000        7.3297        7.3297       6.847196       0.01023
  41     44.20        0.4826        0.0000        7.3134        7.3134       6.830851       0.01087
  40     62.00        0.4826        0.0000        7.2860        7.2860       6.803455       0.01299
  39     85.78        0.4826        0.0000        7.2438        7.2439       6.761283       0.01497
  38     109.5        0.4826        0.0000        7.1969        7.1969       6.714311       0.01667
  37     133.1        0.4827        0.0001        7.1517        7.1518       6.669104       0.01623
  36     156.8        0.4828        0.0001        7.1092        7.1093       6.626542       0.01509
  35     180.6        0.4828        0.0001        7.0662        7.0663       6.583440       0.01530
  34     202.8        0.4829        0.0001        7.0262        7.0262       6.543309       0.01524
  33     228.4        0.4831        0.0001        6.9846        6.9847       6.501636       0.01375
  32     252.2        0.4833        0.0001        6.9407        6.9408       6.457485       0.01567
  31     276.0        0.4836        0.0001        6.8941        6.8942       6.410663       0.01662
  30     299.8        0.4839        0.0001        6.8424        6.8426       6.358617       0.01847
  29     323.5        0.4844        0.0001        6.7849        6.7850       6.300626       0.02058
  28     347.3        0.4850        0.0001        6.7206        6.7207       6.235714       0.02304
  27     371.1        0.4858        0.0001        6.6496        6.6497       6.163951       0.02547
  26     394.9        0.4867        0.0001        6.5676        6.5677       6.081061       0.02942
  25     418.6        0.4877        0.0001        6.4741        6.4743       5.986520       0.03356
  24     442.4        0.4891        0.0001        6.3671        6.3673       5.878235       0.03844
  23     466.2        0.4906        0.0002        6.2486        6.2487       5.758112       0.04264
  22     489.9        0.4924        0.0002        6.1205        6.1206       5.628243       0.04610
  21     513.7        0.4945        0.0002        5.9812        5.9814       5.486820       0.05020
  20     537.5        0.4971        0.0002        5.8338        5.8340       5.336931       0.05320
  19     561.3        0.5000        0.0002        5.6819        5.6820       5.182020       0.05499
  18     585.0        0.5035        0.0002        5.5274        5.5276       5.024098       0.05606
  17     608.8        0.5075        0.0002        5.3761        5.3762       4.868765       0.05514
  16     632.6        0.5120        0.0002        5.2281        5.2283       4.716251       0.05414
  15     656.4        0.5174        0.0002        5.0791        5.0793       4.561861       0.05480
  14     680.1        0.5238        0.0002        4.9299        4.9300       4.406284       0.05522
  13     703.9        0.5313        0.0002        4.7798        4.7799       4.248632       0.05596
  12     727.7        0.5405        0.0002        4.6253        4.6254       4.084904       0.05812
  11     751.5        0.5521        0.0002        4.4633        4.4634       3.911339       0.06161
  10     775.2        0.5666        0.0002        4.2949        4.2950       3.728384       0.06494
   9     799.0        0.5852        0.0002        4.1205        4.1207       3.535464       0.06848
   8     822.8        0.4631        0.1522        3.6346        3.7868       3.323780       0.07514
   7     846.6        0.3465        0.2889        3.2076        3.4965       3.150046       0.06167
   6     870.4        0.2327        0.3940        2.8322        3.2262       2.993464       0.05558
   5     894.1        0.1208        0.4727        2.5031        2.9757       2.854899       0.04919
   4     917.9        0.1243        0.4517        2.3996        2.8514       2.727053       0.04538
   3     941.7        0.1283        0.4318        2.3005        2.7323       2.603936       0.04370
   2     965.5        0.1330        0.4127        2.2060        2.6187       2.485629       0.04199
   1     989.2        0.1385        0.3945        2.1160        2.5105       2.371972       0.04034
   0    1013.0        0.1451        0.3770        2.0299        2.4069       2.261804       0.03911



 Wavenumbers:  3250. -  4000. cm-1, ATM      1
 LEVEL PRESSURE   UPWARD FLUX   DIFDOWN FLUX  DIRDOWN FLUX  DOWNWARD FLUX   NET FLUX    HEATING RATE
          mb          W/m2          W/m2          W/m2        W/m2          W/m2       degree/day
  60   .000300        0.0043        0.0000       12.4485       12.4485      12.444173       0.00000
  59    0.1000        0.0043        0.0000       12.4290       12.4290      12.424671       1.65079
  58    0.1403        0.0043        0.0000       12.4252       12.4252      12.420957       0.77776
  57    0.1968        0.0043        0.0000       12.4208       12.4208      12.416485       0.66803
  56    0.2760        0.0043        0.0000       12.4156       12.4156      12.411322       0.55013
  55    0.3871        0.0043        0.0000       12.4096       12.4096      12.405289       0.45825
  54    0.5430        0.0043        0.0000       12.4022       12.4022      12.397961       0.39669
  53    0.7617        0.0043        0.0000       12.3928       12.3928      12.388500       0.36506
  52     1.069        0.0043        0.0000       12.3807       12.3807      12.376460       0.33119
  51     1.499        0.0043        0.0000       12.3664       12.3664      12.362102       0.28159
  50     2.102        0.0043        0.0000       12.3498       12.3498      12.345469       0.23256
  49     2.949        0.0043        0.0000       12.3302       12.3302      12.325934       0.19473
  48     4.137        0.0043        0.0000       12.3067       12.3068      12.302469       0.16675
  47     5.803        0.0043        0.0000       12.2766       12.2766      12.272351       0.15257
  46     8.139        0.0043        0.0000       12.2347       12.2348      12.230483       0.15121
  45     11.42        0.0043        0.0000       12.1733       12.1733      12.169069       0.15812
  44     16.01        0.0043        0.0000       12.0830       12.0830      12.078758       0.16577
  43     22.46        0.0043        0.0000       11.9527       11.9527      11.948468       0.17049
  42     31.51        0.0042        0.0000       11.7748       11.7748      11.770583       0.16594
  41     44.20        0.0042        0.0001       11.5551       11.5552      11.550947       0.14607
  40     62.00        0.0042        0.0001       11.3050       11.3051      11.300879       0.11856
  39     85.78        0.0042        0.0001       11.0142       11.0143      11.010091       0.10322
  38     109.5        0.0041        0.0001       10.7175       10.7176      10.713471       0.10529
  37     133.1        0.0041        0.0002       10.4459       10.4460      10.441924       0.09752
  36     156.8        0.0041        0.0002       10.1944       10.1946      10.190536       0.08914
  35     180.6        0.0041        0.0002        9.9218        9.9220       9.917978       0.09676
  34     202.8        0.0040        0.0002        9.5970        9.5973       9.593208       0.12331
  33     228.4        0.0040        0.0002        9.1820        9.1823       9.178271       0.13690
  32     252.2        0.0040        0.0003        8.7004        8.7006       8.696629       0.17096
  31     276.0        0.0040        0.0003        8.1693        8.1695       8.165553       0.18851
  30     299.8        0.0040        0.0003        7.5886        7.5889       7.584899       0.20611
  29     323.5        0.0040        0.0003        6.9823        6.9825       6.978564       0.21522
  28     347.3        0.0040        0.0003        6.3629        6.3631       6.359143       0.21987
  27     371.1        0.0040        0.0002        5.7699        5.7701       5.766155       0.21049
  26     394.9        0.0040        0.0002        5.2041        5.2043       5.200297       0.20086
  25     418.6        0.0040        0.0002        4.6962        4.6964       4.692354       0.18030
  24     442.4        0.0041        0.0002        4.2409        4.2411       4.237039       0.16162
  23     466.2        0.0041        0.0002        3.8328        3.8330       3.828819       0.14490
  22     489.9        0.0042        0.0002        3.4648        3.4650       3.460807       0.13063
  21     513.7        0.0043        0.0002        3.1218        3.1220       3.117638       0.12181
  20     537.5        0.0045        0.0002        2.8040        2.8042       2.799666       0.11287
  19     561.3        0.0047        0.0002        2.5083        2.5084       2.503698       0.10506
  18     585.0        0.0050        0.0001        2.2301        2.2302       2.225229       0.09884
  17     608.8        0.0053        0.0001        1.9731        1.9732       1.967859       0.09136
  16     632.6        0.0058        0.0001        1.7337        1.7338       1.728052       0.08512
  15     656.4        0.0064        0.0001        1.5041        1.5042       1.497825       0.08172
  14     680.1        0.0072        0.0001        1.2888        1.2888       1.281641       0.07674
  13     703.9        0.0083        0.0001        1.0908        1.0908       1.082531       0.07068
  12     727.7        0.0099        0.0001        0.9082        0.9083       0.898347       0.06538
  11     751.5        0.0123        0.0001        0.7390        0.7391       0.726790       0.06090
  10     775.2        0.0159        0.0000        0.5856        0.5857       0.569728       0.05575
   9     799.0        0.0219        0.0000        0.4484        0.4484       0.426570       0.05082
   8     822.8        0.0138        0.0125        0.3034        0.3160       0.302187       0.04415
   7     846.6        0.0080        0.0163        0.1999        0.2162       0.208140       0.03338
   6     870.4        0.0037        0.0153        0.1280        0.1432       0.139560       0.02434
   5     894.1        0.0000        0.0122        0.0794        0.0916       0.091580       0.01703
   4     917.9        0.0000        0.0071        0.0513        0.0584       0.058396       0.01178
   3     941.7        0.0000        0.0039        0.0316        0.0356       0.035546       0.00811
   2     965.5        0.0000        0.0021        0.0186        0.0207       0.020648       0.00529
   1     989.2        0.0001        0.0010        0.0104        0.0115       0.011395       0.00328
   0    1013.0        0.0001        0.0005        0.0056        0.0060       0.005901       0.00195



 Wavenumbers:  4000. -  4650. cm-1, ATM      1
 LEVEL PRESSURE   UPWARD FLUX   DIFDOWN FLUX  DIRDOWN FLUX  DOWNWARD FLUX   NET FLUX    HEATING RATE
          mb          W/m2          W/m2          W/m2        W/m2          W/m2       degree/day
  60   .000300        1.5378        0.0000       14.6183       14.6183      13.080426       0.00000
  59    0.1000        1.5378        0.0000       14.6182       14.6182      13.080416       0.00076
  58    0.1403        1.5378        0.0000       14.6182       14.6182      13.080413       0.00076
  57    0.1968        1.5378        0.0000       14.6182       14.6182      13.080408       0.00077
  56    0.2760        1.5378        0.0000       14.6182       14.6182      13.080401       0.00076
  55    0.3871        1.5378        0.0000       14.6182       14.6182      13.080390       0.00080
  54    0.5430        1.5378        0.0000       14.6182       14.6182      13.080374       0.00085
