

 Wavenumbers:   820. - 50000. cm-1, ATM      1
 LEVEL PRESSURE   UPWARD FLUX   DIFDOWN FLUX  DIRDOWN FLUX  DOWNWARD FLUX   NET FLUX    HEATING RATE
          mb          W/m2          W/m2          W/m2        W/m2          W/m2       degree/day
  60   .000300       84.1902        0.0000     1042.4709     1042.4709     958.280762       0.00000
  59    0.1000       84.1837        0.0098     1042.3585     1042.3684     958.184687       8.13231
  58    0.1403       84.1812        0.0138     1042.3004     1042.3142     958.132997      10.82423
  57    0.1968       84.1778        0.0194     1042.2041     1042.2235     958.045609      13.05271
  56    0.2760       84.1734        0.0271     1042.0472     1042.0743     957.900912      15.41817
  55    0.3871       84.1673        0.0379     1041.7993     1041.8372     957.669877      17.54943
  54    0.5430       84.1593        0.0527     1041.4123     1041.4651     957.305755      19.71058
  53    0.7617       84.1490        0.0730     1040.7941     1040.8671     956.718094      22.67651
  52     1.069       84.1362        0.1008     1039.8315     1039.9323     955.796013      25.36367
  51     1.499       84.1215        0.1379     1038.4493     1038.5872     954.465697      26.09048
  50     2.102       84.1066        0.1876     1036.6488     1036.8363     952.729747      24.27094
  49     2.949       84.0953        0.2567     1034.5489     1034.8056     950.710265      20.13076
  48     4.137       84.0924        0.3526     1032.3568     1032.7094     948.617040      14.87457
  47     5.803       84.0980        0.4856     1030.1103     1030.5960     946.497991      10.73471
  46     8.139       84.1049        0.6706     1027.7959     1028.4665     944.361619       7.71565
  45     11.42       84.0994        0.9278     1025.3621     1026.2899     942.190466       5.58993
  44     16.01       84.0679        1.2847     1022.6863     1023.9710     939.903121       4.19845
  43     22.46       83.9914        1.7804     1019.6498     1021.4302     937.438800       3.22466
  42     31.51       83.8245        2.4691     1016.2288     1018.6979     934.873440       2.39313
  41     44.20       83.4861        3.4285     1012.4120     1015.8404     932.354374       1.67528
  40     62.00       82.9000        4.7510     1008.0026     1012.7536     929.853640       1.18563
  39     85.78       81.9624        6.4950     1003.0975     1009.5925     927.630081       0.78927
  38     109.5       80.9217        8.2398      998.6164     1006.8562     925.934509       0.60186
  37     133.1       79.8952        9.8874      994.4943     1004.3817     924.486479       0.52001
  36     156.8       78.8829       11.4641      990.6066     1002.0706     923.187773       0.46052
  35     180.6       77.7876       13.1101      986.5481      999.6582     921.870601       0.46762
  34     202.8       76.7138       14.6674      982.5191      997.1865     920.472656       0.53077
  33     228.4       75.6077       16.2281      978.0654      994.2934     918.685768       0.58956
  32     252.2       74.4908       17.7646      973.1536      990.9182     916.427406       0.80163
  31     276.0       73.3793       19.2562      967.7181      986.9743     913.594944       1.00541
  30     299.8       72.2526       20.7324      961.5287      982.2611     910.008476       1.27305
  29     323.5       71.1192       22.1844      954.7609      976.9454     905.826193       1.48454
  28     347.3       69.9920       23.5969      947.6605      971.2574     901.265346       1.61891
  27     371.1       68.8754       24.9659      940.4565      965.4223     896.546879       1.67486
  26     394.9       67.7400       26.3281      932.8893      959.2174     891.477466       1.79943
  25     418.6       66.6044       27.6613      925.0832      952.7445     886.140112       1.89454
  24     442.4       65.4672       28.9679      917.0332      946.0011     880.533904       1.98997
  23     466.2       64.3247       30.2527      908.8704      939.1231     874.798439       2.03585
  22     489.9       63.1928       31.4986      900.7552      932.2538     869.061025       2.03655
  21     513.7       62.0525       32.7274      892.5288      925.2563     863.203778       2.07908
  20     537.5       60.9215       33.9208      884.3035      918.2243     857.302791       2.09461
  19     561.3       59.7983       35.0813      876.0679      911.1493     851.350944       2.11266
  18     585.0       58.6588       36.2345      867.7434      903.9780     845.319174       2.14103
  17     608.8       57.5297       37.3535      859.5641      896.9176     839.387877       2.10537
  16     632.6       56.4112       38.4392      851.5124      889.9516     833.540456       2.07559
  15     656.4       55.2808       39.5142      843.3457      882.8599     827.579066       2.11605
  14     680.1       54.1622       40.5567      835.1535      875.7102     821.547992       2.14078
  13     703.9       53.0559       41.5678      826.9502      868.5179     815.461989       2.16028
  12     727.7       51.9465       42.5626      818.6025      861.1651     809.218633       2.21613
  11     751.5       50.8360       43.5403      810.0193      853.5596     802.723605       2.30547
  10     775.2       49.7400       44.4888      801.2943      845.7832     796.043114       2.37130
   9     799.0       48.6610       45.4084      792.4301      837.8385     789.177550       2.43699
   8     822.8       47.5821       46.3145      783.4414      829.7559     782.173752       2.48606
   7     846.6       46.5130       47.1984      774.7883      821.9867     775.473743       2.37823
   6     870.4       45.4604       48.0561      766.4693      814.5254     769.064982       2.27485
   5     894.1       44.4260       48.8882      758.4410      807.3292     762.903266       2.18716
   4     917.9       43.4012       49.7040      750.5706      800.2745     756.873332       2.14038
   3     941.7       42.3942       50.5005      742.8314      793.3319     750.937659       2.10692
   2     965.5       41.4179       51.2720      735.2690      786.5410     745.123132       2.06392
   1     989.2       40.4790       52.0192      727.8785      779.8977     739.418679       2.02442
   0    1013.0       39.5878       52.7426      720.6511      773.3937     733.805924       1.99272



 Wavenumbers:  2600. -  3250. cm-1, ATM      1
 LEVEL PRESSURE   UPWARD FLUX   DIFDOWN FLUX  DIRDOWN FLUX  DOWNWARD FLUX   NET FLUX    HEATING RATE
          mb          W/m2          W/m2          W/m2        W/m2          W/m2       degree/day
  60   .000300        0.0859        0.0000        9.1877        9.1877       9.101826       0.00000
  59    0.1000        0.0859        0.0000        9.1876        9.1876       9.101753       0.00613
  58    0.1403        0.0859        0.0000        9.1876        9.1876       9.101724       0.00614
  57    0.1968        0.0859        0.0000        9.1876        9.1876       9.101683       0.00617
  56    0.2760        0.0859        0.0000        9.1875        9.1875       9.101625       0.00614
  55    0.3871        0.0859        0.0000        9.1874        9.1874       9.101541       0.00642
  54    0.5430        0.0859        0.0000        9.1873        9.1873       9.101415       0.00679
  53    0.7617        0.0859        0.0000        9.1871        9.1871       9.101218       0.00763
  52     1.069        0.0859        0.0000        9.1868        9.1868       9.100886       0.00911
  51     1.499        0.0859        0.0000        9.1862        9.1862       9.100275       0.01200
  50     2.102        0.0859        0.0000        9.1851        9.1851       9.099176       0.01537
  49     2.949        0.0859        0.0000        9.1832        9.1832       9.097260       0.01910
  48     4.137        0.0859        0.0000        9.1801        9.1801       9.094160       0.02202
  47     5.803        0.0859        0.0000        9.1754        9.1754       9.089533       0.02344
  46     8.139        0.0859        0.0000        9.1690        9.1690       9.083089       0.02327
  45     11.42        0.0859        0.0000        9.1606        9.1606       9.074723       0.02154
  44     16.01        0.0859        0.0000        9.1506        9.1506       9.064757       0.01829
  43     22.46        0.0859        0.0000        9.1395        9.1395       9.053640       0.01455
  42     31.51        0.0859        0.0000        9.1268        9.1268       9.040905       0.01188
  41     44.20        0.0859        0.0000        9.1091        9.1091       9.023238       0.01175
  40     62.00        0.0859        0.0000        9.0808        9.0808       8.994947       0.01341
  39     85.78        0.0859        0.0000        9.0371        9.0371       8.951267       0.01550
  38     109.5        0.0859        0.0000        8.9874        8.9875       8.901617       0.01762
  37     133.1        0.0859        0.0000        8.9386        8.9387       8.852791       0.01753
  36     156.8        0.0859        0.0001        8.8915        8.8915       8.805665       0.01671
  35     180.6        0.0859        0.0001        8.8426        8.8427       8.756812       0.01734
  34     202.8        0.0859        0.0001        8.7962        8.7963       8.710421       0.01761
  33     228.4        0.0859        0.0001        8.7473        8.7474       8.661500       0.01614
  32     252.2        0.0859        0.0001        8.6951        8.6952       8.609270       0.01854
  31     276.0        0.0859        0.0001        8.6394        8.6395       8.553507       0.01979
  30     299.8        0.0860        0.0001        8.5775        8.5776       8.491648       0.02196
  29     323.5        0.0860        0.0001        8.5093        8.5095       8.423412       0.02422
  28     347.3        0.0861        0.0001        8.4346        8.4347       8.348580       0.02656
  27     371.1        0.0862        0.0001        8.3540        8.3542       8.267950       0.02862
  26     394.9        0.0863        0.0001        8.2632        8.2634       8.177032       0.03227
  25     418.6        0.0865        0.0001        8.1616        8.1617       8.075284       0.03612
  24     442.4        0.0866        0.0001        8.0461        8.0462       7.959593       0.04107
  23     466.2        0.0868        0.0001        7.9179        7.9181       7.831243       0.04556
  22     489.9        0.0870        0.0002        7.7782        7.7783       7.691303       0.04967
  21     513.7        0.0873        0.0002        7.6239        7.6240       7.536723       0.05487
  20     537.5        0.0876        0.0002        7.4579        7.4581       7.370500       0.05900
  19     561.3        0.0879        0.0002        7.2839        7.2841       7.196122       0.06190
  18     585.0        0.0883        0.0002        7.1039        7.1041       7.015764       0.06402
  17     608.8        0.0888        0.0002        6.9249        6.9250       6.836246       0.06372
  16     632.6        0.0893        0.0002        6.7478        6.7480       6.658638       0.06304
  15     656.4        0.0899        0.0002        6.5681        6.5682       6.478321       0.06401
  14     680.1        0.0906        0.0002        6.3876        6.3878       6.297164       0.06430
  13     703.9        0.0914        0.0002        6.2071        6.2073       6.115866       0.06435
  12     727.7        0.0924        0.0002        6.0223        6.0224       5.930049       0.06596
  11     751.5        0.0935        0.0002        5.8300        5.8302       5.736647       0.06865
  10     775.2        0.0949        0.0002        5.6314        5.6315       5.536610       0.07100
   9     799.0        0.0966        0.0002        5.4255        5.4257       5.329101       0.07366
   8     822.8        0.0986        0.0002        5.2141        5.2142       5.115592       0.07579
   7     846.6        0.1009        0.0002        5.0109        5.0111       4.910142       0.07293
   6     870.4        0.1035        0.0002        4.8172        4.8173       4.713855       0.06967
   5     894.1        0.1064        0.0002        4.6324        4.6326       4.526166       0.06662
   4     917.9        0.1098        0.0001        4.4544        4.4545       4.344716       0.06441
   3     941.7        0.1138        0.0001        4.2825        4.2826       4.168850       0.06243
   2     965.5        0.1185        0.0001        4.1178        4.1180       3.999523       0.06010
   1     989.2        0.1241        0.0001        3.9602        3.9604       3.836278       0.05793
   0    1013.0        0.1310        0.0001        3.8093        3.8095       3.678410       0.05605



 Wavenumbers:  3250. -  4000. cm-1, ATM      1
 LEVEL PRESSURE   UPWARD FLUX   DIFDOWN FLUX  DIRDOWN FLUX  DOWNWARD FLUX   NET FLUX    HEATING RATE
          mb          W/m2          W/m2          W/m2        W/m2          W/m2       degree/day
  60   .000300        0.0005        0.0000       15.4892       15.4892      15.488674       0.00000
  59    0.1000        0.0005        0.0000       15.4673       15.4673      15.466814       1.85040
  58    0.1403        0.0005        0.0000       15.4631       15.4631      15.462642       0.87356
  57    0.1968        0.0005        0.0000       15.4580       15.4580      15.457533       0.76308
  56    0.2760        0.0005        0.0000       15.4520       15.4520      15.451532       0.63952
  55    0.3871        0.0005        0.0000       15.4450       15.4450      15.444523       0.53241
  54    0.5430        0.0005        0.0000       15.4367       15.4367      15.436257       0.44741
  53    0.7617        0.0005        0.0000       15.4264       15.4264      15.425925       0.39870
  52     1.069        0.0005        0.0000       15.4133       15.4133      15.412827       0.36030
  51     1.499        0.0005        0.0000       15.3974       15.3974      15.396935       0.31167
  50     2.102        0.0005        0.0000       15.3786       15.3786      15.378085       0.26355
  49     2.949        0.0005        0.0000       15.3561       15.3561      15.355590       0.22424
  48     4.137        0.0005        0.0000       15.3291       15.3291      15.328610       0.19172
  47     5.803        0.0005        0.0000       15.2953       15.2953      15.294793       0.17131
  46     8.139        0.0005        0.0000       15.2496       15.2497      15.249189       0.16471
  45     11.42        0.0005        0.0000       15.1838       15.1838      15.183377       0.16944
  44     16.01        0.0005        0.0000       15.0864       15.0864      15.085940       0.17885
  43     22.46        0.0004        0.0000       14.9438       14.9439      14.943410       0.18651
  42     31.51        0.0004        0.0000       14.7434       14.7434      14.743013       0.18694
  41     44.20        0.0004        0.0001       14.4852       14.4853      14.484845       0.17169
  40     62.00        0.0004        0.0001       14.1864       14.1865      14.186133       0.14162
  39     85.78        0.0004        0.0001       13.8517       13.8518      13.851396       0.11882
  38     109.5        0.0003        0.0001       13.5177       13.5179      13.517529       0.11851
  37     133.1        0.0003        0.0002       13.2074       13.2076      13.207246       0.11143
  36     156.8        0.0003        0.0002       12.9147       12.9149      12.914565       0.10378
  35     180.6        0.0003        0.0002       12.5943       12.5945      12.594210       0.11373
  34     202.8        0.0002        0.0002       12.2125       12.2128      12.212538       0.14491
  33     228.4        0.0002        0.0002       11.7231       11.7233      11.723123       0.16148
  32     252.2        0.0002        0.0003       11.1455       11.1457      11.145560       0.20501
  31     276.0        0.0002        0.0003       10.4964       10.4966      10.496461       0.23040
  30     299.8        0.0001        0.0003        9.7807        9.7809       9.780775       0.25404
  29     323.5        0.0001        0.0003        9.0404        9.0407       9.040577       0.26274
  28     347.3        0.0001        0.0003        8.2944        8.2947       8.294566       0.26480
  27     371.1        0.0001        0.0002        7.5749        7.5752       7.575079       0.25539
  26     394.9        0.0001        0.0002        6.8729        6.8731       6.873012       0.24920
  25     418.6        0.0001        0.0002        6.2304        6.2307       6.230581       0.22804
  24     442.4        0.0001        0.0002        5.6500        5.6502       5.650170       0.20602
  23     466.2        0.0001        0.0002        5.1288        5.1290       5.128957       0.18501
  22     489.9        0.0000        0.0002        4.6603        4.6605       4.660431       0.16631
  21     513.7        0.0000        0.0002        4.2228        4.2230       4.222952       0.15529
  20     537.5        0.0000        0.0002        3.8178        3.8180       3.817962       0.14375
  19     561.3        0.0000        0.0002        3.4401        3.4402       3.440186       0.13410
  18     585.0        0.0000        0.0001        3.0858        3.0859       3.085904       0.12576
  17     608.8        0.0000        0.0001        2.7599        2.7601       2.760042       0.11567
  16     632.6        0.0000        0.0001        2.4569        2.4570       2.456968       0.10758
  15     656.4        0.0000        0.0001        2.1644        2.1645       2.164447       0.10383
  14     680.1        0.0000        0.0001        1.8852        1.8853       1.885311       0.09908
  13     703.9        0.0000        0.0001        1.6233        1.6234       1.623363       0.09298
  12     727.7        0.0000        0.0001        1.3775        1.3775       1.377521       0.08726
  11     751.5        0.0000        0.0001        1.1471        1.1471       1.147103       0.08179
  10     775.2        0.0000        0.0000        0.9368        0.9369       0.936862       0.07463
   9     799.0        0.0000        0.0000        0.7469        0.7469       0.746923       0.06742
   8     822.8        0.0000        0.0000        0.5779        0.5779       0.577882       0.06000
   7     846.6        0.0000        0.0000        0.4392        0.4392       0.439181       0.04923
   6     870.4        0.0000        0.0000        0.3269        0.3269       0.326891       0.03986
   5     894.1        0.0000        0.0000        0.2374        0.2374       0.237379       0.03177
   4     917.9        0.0001        0.0000        0.1670        0.1670       0.166932       0.02501
   3     941.7        0.0001        0.0000        0.1133        0.1133       0.113142       0.01909
   2     965.5        0.0002        0.0000        0.0740        0.0740       0.073777       0.01397
   1     989.2        0.0004        0.0000        0.0465        0.0465       0.046050       0.00984
   0    1013.0        0.0010        0.0000        0.0280        0.0280       0.027044       0.00675



 Wavenumbers:  4000. -  4650. cm-1, ATM      1
 LEVEL PRESSURE   UPWARD FLUX   DIFDOWN FLUX  DIRDOWN FLUX  DOWNWARD FLUX   NET FLUX    HEATING RATE
          mb          W/m2          W/m2          W/m2        W/m2          W/m2       degree/day
  60   .000300        0.3555        0.0000       18.1889       18.1889      17.833447       0.00000
  59    0.1000        0.3555        0.0000       18.1889       18.1889      17.833438       0.00076
  58    0.1403        0.3555        0.0000       18.1889       18.1889      17.833435       0.00076
  57    0.1968        0.3555        0.0000       18.1889       18.1889      17.833430       0.00077
  56    0.2760        0.3555        0.0000       18.1889       18.1889      17.833422       0.00076
  55    0.3871        0.3555        0.0000       18.1889       18.1889      17.833412       0.00080
  54    0.5430        0.3555        0.0000       18.1889       18.1889      17.833396       0.00085
