

 Wavenumbers:   820. - 50000. cm-1, ATM      1
 LEVEL PRESSURE   UPWARD FLUX   DIFDOWN FLUX  DIRDOWN FLUX  DOWNWARD FLUX   NET FLUX    HEATING RATE
          mb          W/m2          W/m2          W/m2        W/m2          W/m2       degree/day
  60   .000300       76.3882        0.0000      837.8224      837.8224     761.434231       0.00000
  59    0.1000       76.3815        0.0097      837.7165      837.7262     761.344729       7.57594
  58    0.1403       76.3790        0.0136      837.6603      837.6739     761.294940      10.42624
  57    0.1968       76.3755        0.0191      837.5668      837.5859     761.210438      12.62154
  56    0.2760       76.3708        0.0267      837.4145      837.4412     761.070353      14.92677
  55    0.3871       76.3645        0.0373      837.1743      837.2116     760.847141      16.95516
  54    0.5430       76.3561        0.0519      836.8019      836.8538     760.497715      18.91508
  53    0.7617       76.3452        0.0718      836.2141      836.2859     759.940636      21.49642
  52     1.069       76.3315        0.0990      835.3201      835.4190     759.087496      23.46731
  51     1.499       76.3155        0.1353      834.0843      834.2196     757.904127      23.20851
  50     2.102       76.2751        0.2248      816.7317      816.9565     740.681360     240.79763
  49     2.949       76.2513        0.3060      813.6861      813.9921     737.740837      29.31196
  48     4.137       76.2362        0.4058      811.1895      811.5953     735.359163      16.92429
  47     5.803       76.2265        0.5386      808.8836      809.4222     733.195682      10.95980
  46     8.139       76.2136        0.7205      806.6557      807.3763     731.162605       7.34259
  45     11.42       76.1831        0.9720      804.4150      805.3871     729.203965       5.04279
  44     16.01       76.1197        1.3201      802.0351      803.3551     727.235375       3.61338
  43     22.46       76.0027        1.8030      799.3844      801.1873     725.184596       2.68352
  42     31.51       75.7869        2.4732      796.3620      798.8352     723.048280       1.99289
  41     44.20       75.3946        3.4048      793.0144      796.4191     721.024511       1.34589
  40     62.00       74.7515        4.6865      789.1873      793.8738     719.122238       0.90190
  39     85.78       73.7657        6.3713      784.9909      791.3622     717.596527       0.54156
  38     109.5       72.6939        8.0527      781.2028      789.2554     716.561509       0.36739
  37     133.1       71.6452        9.6371      777.6970      787.3342     715.688912       0.31336
  36     156.8       70.6163       11.1472      774.3204      785.4676     714.851308       0.29702
  35     180.6       69.5103       12.7211      770.7410      783.4621     713.951750       0.31936
  34     202.8       68.4331       14.2075      767.2570      781.4645     713.031414       0.34943
  33     228.4       67.3283       15.6938      763.7841      779.4779     712.149593       0.29095
  32     252.2       66.2172       17.1541      760.1714      777.3255     711.108327       0.36961
  31     276.0       65.1157       18.5688      756.4230      774.9918     709.876138       0.43738
  30     299.8       64.0030       19.9663      752.4152      772.3815     708.378531       0.53159
  29     323.5       62.8871       21.3382      748.1235      769.4618     706.574660       0.64030
  28     347.3       61.7806       22.6703      743.5681      766.2384     704.457830       0.75139
  27     371.1       60.6876       23.9588      738.7632      762.7220     702.034370       0.86023
  26     394.9       59.5793       25.2388      733.5836      758.8224     699.243077       0.99079
  25     418.6       58.4739       26.4892      728.1208      754.6100     696.136078       1.10286
  24     442.4       57.3699       27.7125      722.3957      750.1081     692.738281       1.20608
  23     466.2       56.2636       28.9131      716.4381      745.3512     689.087620       1.29583
  22     489.9       55.1706       30.0754      710.3656      740.4410     685.270435       1.35494
  21     513.7       54.0722       31.2197      704.1078      735.3276     681.255338       1.42519
  20     537.5       52.9855       32.3292      697.7954      730.1246     677.139070       1.46111
  19     561.3       51.9090       33.4066      691.4540      724.8606     672.951578       1.48639
  18     585.0       50.8194       34.4753      684.9799      719.4552     668.635788       1.53193
  17     608.8       49.7427       35.5106      678.5807      714.0912     664.348555       1.52179
  16     632.6       48.6785       36.5137      672.3025      708.8162     660.137695       1.49468
  15     656.4       47.6052       37.5055      666.0265      703.5320     655.926736       1.49472
  14     680.1       46.5446       38.4666      659.8899      698.3565     651.811890       1.46060
  13     703.9       45.4966       39.3980      653.9095      693.3075     647.810965       1.42016
  12     727.7       44.4453       40.3142      648.0193      688.3335     643.888209       1.39242
  11     751.5       43.3912       41.2150      642.2466      683.4617     640.070444       1.35515
  10     775.2       42.3472       42.0898      636.6667      678.7565     636.409248       1.29957
   9     799.0       41.3138       42.9390      631.2570      674.1959     632.882096       1.25199
   8     822.8       40.2748       43.7764      625.8970      669.6733     629.398486       1.23654
   7     846.6       39.2425       44.5927      620.6222      665.2149     625.972326       1.21615
   6     870.4       38.2232       45.3839      615.4363      660.8203     622.597104       1.19806
   5     894.1       37.2174       46.1510      610.3267      656.4777     619.260338       1.18441
   4     917.9       36.2153       46.9023      605.2301      652.1324     615.917100       1.18671
   3     941.7       35.2216       47.6356      600.1637      647.7993     612.577740       1.18534
   2     965.5       34.2453       48.3457      595.1687      643.5144     609.269104       1.17443
   1     989.2       33.2880       49.0332      590.2435      639.2767     605.988633       1.16419
   0    1013.0       32.3524       49.6988      585.3902      635.0890     602.736600       1.15458



 Wavenumbers:  2600. -  3250. cm-1, ATM      1
 LEVEL PRESSURE   UPWARD FLUX   DIFDOWN FLUX  DIRDOWN FLUX  DOWNWARD FLUX   NET FLUX    HEATING RATE
          mb          W/m2          W/m2          W/m2        W/m2          W/m2       degree/day
  60   .000300        0.1533        0.0000        7.3841        7.3841       7.230727       0.00000
  59    0.1000        0.1533        0.0000        7.3840        7.3840       7.230655       0.00613
  58    0.1403        0.1533        0.0000        7.3840        7.3840       7.230626       0.00614
  57    0.1968        0.1533        0.0000        7.3839        7.3839       7.230584       0.00616
  56    0.2760        0.1533        0.0000        7.3839        7.3839       7.230527       0.00613
  55    0.3871        0.1533        0.0000        7.3838        7.3838       7.230442       0.00641
  54    0.5430        0.1533        0.0000        7.3837        7.3837       7.230317       0.00678
  53    0.7617        0.1533        0.0000        7.3835        7.3835       7.230120       0.00761
  52     1.069        0.1533        0.0000        7.3831        7.3831       7.229790       0.00908
  51     1.499        0.1533        0.0000        7.3825        7.3825       7.229181       0.01193
  50     2.102        0.1533        0.0000        7.3814        7.3814       7.228093       0.01522
  49     2.949        0.1533        0.0000        7.3795        7.3795       7.226207       0.01880
  48     4.137        0.1533        0.0000        7.3765        7.3765       7.223193       0.02142
  47     5.803        0.1533        0.0000        7.3721        7.3721       7.218762       0.02245
  46     8.139        0.1533        0.0000        7.3661        7.3661       7.212755       0.02169
  45     11.42        0.1533        0.0000        7.3586        7.3586       7.205250       0.01932
  44     16.01        0.1533        0.0000        7.3500        7.3500       7.196676       0.01574
  43     22.46        0.1533        0.0000        7.3407        7.3407       7.187364       0.01219
  42     31.51        0.1533        0.0000        7.3297        7.3297       7.176406       0.01022
  41     44.20        0.1533        0.0000        7.3134        7.3134       7.160068       0.01087
  40     62.00        0.1533        0.0000        7.2860        7.2860       7.132686       0.01298
  39     85.78        0.1533        0.0000        7.2438        7.2439       7.090539       0.01496
  38     109.5        0.1533        0.0000        7.1973        7.1974       7.044015       0.01651
  37     133.1        0.1534        0.0000        7.1517        7.1518       6.998397       0.01638
  36     156.8        0.1534        0.0001        7.1066        7.1067       6.953280       0.01600
  35     180.6        0.1534        0.0001        7.0579        7.0580       6.904589       0.01729
  34     202.8        0.1535        0.0001        7.0101        7.0101       6.856669       0.01819
  33     228.4        0.1535        0.0001        6.9659        6.9660       6.812483       0.01458
  32     252.2        0.1536        0.0001        6.9210        6.9211       6.767502       0.01597
  31     276.0        0.1537        0.0001        6.8753        6.8754       6.721763       0.01624
  30     299.8        0.1538        0.0001        6.8277        6.8278       6.673975       0.01696
  29     323.5        0.1539        0.0001        6.7771        6.7773       6.623336       0.01797
  28     347.3        0.1541        0.0001        6.7234        6.7235       6.569426       0.01914
  27     371.1        0.1543        0.0001        6.6650        6.6651       6.510825       0.02080
  26     394.9        0.1545        0.0001        6.5992        6.5993       6.444819       0.02343
  25     418.6        0.1548        0.0001        6.5252        6.5253       6.370550       0.02636
  24     442.4        0.1551        0.0001        6.4422        6.4424       6.287238       0.02957
  23     466.2        0.1555        0.0002        6.3489        6.3491       6.193596       0.03324
  22     489.9        0.1559        0.0002        6.2464        6.2466       6.090668       0.03653
  21     513.7        0.1565        0.0002        6.1344        6.1345       5.978095       0.03996
  20     537.5        0.1570        0.0002        6.0151        6.0152       5.858169       0.04257
  19     561.3        0.1577        0.0002        5.8895        5.8897       5.731952       0.04480
  18     585.0        0.1585        0.0002        5.7565        5.7567       5.598165       0.04749
  17     608.8        0.1595        0.0002        5.6220        5.6222       5.462721       0.04808
  16     632.6        0.1605        0.0002        5.4889        5.4891       5.328601       0.04761
  15     656.4        0.1616        0.0002        5.3570        5.3572       5.195557       0.04722
  14     680.1        0.1629        0.0002        5.2295        5.2297       5.066747       0.04572
  13     703.9        0.1644        0.0002        5.1068        5.1069       4.942568       0.04408
  12     727.7        0.1659        0.0002        4.9873        4.9875       4.821543       0.04296
  11     751.5        0.1677        0.0002        4.8717        4.8719       4.704194       0.04165
  10     775.2        0.1696        0.0002        4.7611        4.7613       4.591673       0.03994
   9     799.0        0.1717        0.0002        4.6543        4.6545       4.482796       0.03865
   8     822.8        0.1740        0.0002        4.5486        4.5488       4.374856       0.03831
   7     846.6        0.1765        0.0002        4.4446        4.4448       4.268266       0.03784
   6     870.4        0.1793        0.0002        4.3421        4.3422       4.162940       0.03739
   5     894.1        0.1824        0.0002        4.2405        4.2407       4.058229       0.03717
   4     917.9        0.1860        0.0002        4.1387        4.1389       3.952848       0.03741
   3     941.7        0.1901        0.0002        4.0374        4.0376       3.847517       0.03739
   2     965.5        0.1946        0.0002        3.9375        3.9377       3.743077       0.03707
   1     989.2        0.1999        0.0002        3.8392        3.8394       3.639571       0.03673
   0    1013.0        0.2059        0.0002        3.7429        3.7430       3.537165       0.03636



 Wavenumbers:  3250. -  4000. cm-1, ATM      1
 LEVEL PRESSURE   UPWARD FLUX   DIFDOWN FLUX  DIRDOWN FLUX  DOWNWARD FLUX   NET FLUX    HEATING RATE
          mb          W/m2          W/m2          W/m2        W/m2          W/m2       degree/day
  60   .000300        0.0005        0.0000       12.4485       12.4485      12.447973       0.00000
  59    0.1000        0.0005        0.0000       12.4299       12.4299      12.429389       1.57301
  58    0.1403        0.0005        0.0000       12.4265       12.4265      12.425994       0.71112
  57    0.1968        0.0005        0.0000       12.4224       12.4224      12.421894       0.61236
  56    0.2760        0.0005        0.0000       12.4177       12.4177      12.417204       0.49971
  55    0.3871        0.0005        0.0000       12.4123       12.4123      12.411858       0.40611
  54    0.5430        0.0005        0.0000       12.4060       12.4061      12.405563       0.34076
  53    0.7617        0.0005        0.0000       12.3980       12.3980      12.397532       0.30990
  52     1.069        0.0005        0.0000       12.3876       12.3876      12.387160       0.28528
  51     1.499        0.0005        0.0000       12.3750       12.3750      12.374467       0.24894
  50     2.102        0.0005        0.0000        9.5495        9.5495       9.549003      39.50382
  49     2.949        0.0005        0.0000        9.0652        9.0652       9.064685       4.82781
  48     4.137        0.0005        0.0000        8.7982        8.7982       8.797729       1.89701
  47     5.803        0.0005        0.0000        8.6242        8.6242       8.623669       0.88176
  46     8.139        0.0005        0.0000        8.5018        8.5018       8.501259       0.44209
  45     11.42        0.0005        0.0000        8.4108        8.4108       8.410286       0.23422
  44     16.01        0.0005        0.0000        8.3389        8.3389       8.338409       0.13193
  43     22.46        0.0005        0.0000        8.2764        8.2765       8.275962       0.08171
  42     31.51        0.0005        0.0000        8.1924        8.1924       8.191940       0.07838
  41     44.20        0.0005        0.0000        8.1143        8.1143       8.113840       0.05194
  40     62.00        0.0005        0.0001        8.0487        8.0487       8.048252       0.03110
  39     85.78        0.0004        0.0001        8.0059        8.0060       8.005562       0.01515
  38     109.5        0.0004        0.0001        7.9704        7.9705       7.970090       0.01259
  37     133.1        0.0004        0.0001        7.9234        7.9235       7.923083       0.01688
  36     156.8        0.0004        0.0001        7.8433        7.8435       7.843106       0.02836
  35     180.6        0.0004        0.0002        7.7180        7.7182       7.717819       0.04448
  34     202.8        0.0003        0.0002        7.5541        7.5543       7.553978       0.06221
  33     228.4        0.0003        0.0002        7.3950        7.3952       7.394870       0.05250
  32     252.2        0.0003        0.0002        7.1910        7.1912       7.190881       0.07241
  31     276.0        0.0003        0.0002        6.9416        6.9418       6.941534       0.08851
  30     299.8        0.0003        0.0002        6.6412        6.6414       6.641127       0.10663
  29     323.5        0.0002        0.0002        6.2947        6.2950       6.294713       0.12296
  28     347.3        0.0002        0.0002        5.9150        5.9152       5.915008       0.13478
  27     371.1        0.0002        0.0002        5.5196        5.5198       5.519605       0.14035
  26     394.9        0.0002        0.0002        5.1159        5.1161       5.115916       0.14329
  25     418.6        0.0002        0.0002        4.7220        4.7222       4.721998       0.13982
  24     442.4        0.0002        0.0002        4.3449        4.3452       4.344966       0.13383
  23     466.2        0.0002        0.0002        3.9925        3.9928       3.992566       0.12509
  22     489.9        0.0002        0.0002        3.6652        3.6654       3.665220       0.11619
  21     513.7        0.0002        0.0002        3.3542        3.3544       3.354197       0.11040
  20     537.5        0.0002        0.0002        3.0627        3.0628       3.062669       0.10348
  19     561.3        0.0002        0.0002        2.7894        2.7895       2.789371       0.09701
  18     585.0        0.0002        0.0002        2.5286        2.5288       2.528617       0.09256
  17     608.8        0.0002        0.0002        2.2874        2.2875       2.287351       0.08564
  16     632.6        0.0002        0.0001        2.0648        2.0649       2.064730       0.07902
  15     656.4        0.0002        0.0001        1.8539        1.8541       1.853898       0.07484
  14     680.1        0.0002        0.0001        1.6584        1.6585       1.658325       0.06942
  13     703.9        0.0002        0.0001        1.4781        1.4782       1.478044       0.06399
  12     727.7        0.0002        0.0001        1.3121        1.3122       1.311991       0.05894
  11     751.5        0.0002        0.0001        1.1614        1.1615       1.161276       0.05350
  10     775.2        0.0003        0.0001        1.0276        1.0276       1.027392       0.04752
   9     799.0        0.0003        0.0001        0.9084        0.9085       0.908205       0.04231
   8     822.8        0.0003        0.0001        0.8002        0.8002       0.799929       0.03843
   7     846.6        0.0004        0.0001        0.7020        0.7020       0.701658       0.03488
   6     870.4        0.0004        0.0001        0.6127        0.6127       0.612298       0.03172
   5     894.1        0.0005        0.0000        0.5309        0.5310       0.530491       0.02904
   4     917.9        0.0006        0.0000        0.4554        0.4554       0.454813       0.02686
   3     941.7        0.0007        0.0000        0.3862        0.3862       0.385530       0.02459
   2     965.5        0.0009        0.0000        0.3238        0.3238       0.322958       0.02221
   1     989.2        0.0011        0.0000        0.2681        0.2681       0.267007       0.01986
   0    1013.0        0.0014        0.0000        0.2189        0.2189       0.217483       0.01758



 Wavenumbers:  4000. -  4650. cm-1, ATM      1
 LEVEL PRESSURE   UPWARD FLUX   DIFDOWN FLUX  DIRDOWN FLUX  DOWNWARD FLUX   NET FLUX    HEATING RATE
          mb          W/m2          W/m2          W/m2        W/m2          W/m2       degree/day
  60   .000300        0.2619        0.0000       14.6183       14.6183      14.356316       0.00000
  59    0.1000        0.2619        0.0000       14.6182       14.6182      14.356307       0.00077
  58    0.1403        0.2619        0.0000       14.6182       14.6182      14.356303       0.00077
  57    0.1968        0.2619        0.0000       14.6182       14.6182      14.356298       0.00077
  56    0.2760        0.2619        0.0000       14.6182       14.6182      14.356291       0.00077
  55    0.3871        0.2619        0.0000       14.6182       14.6182      14.356280       0.00080
  54    0.5430        0.2619        0.0000       14.6182       14.6182      14.356265       0.00085
