

 Wavenumbers:   820. - 50000. cm-1, ATM      1
 LEVEL PRESSURE   UPWARD FLUX   DIFDOWN FLUX  DIRDOWN FLUX  DOWNWARD FLUX   NET FLUX    HEATING RATE
          mb          W/m2          W/m2          W/m2        W/m2          W/m2       degree/day
  60   .000300      191.8268        0.0000      837.8224      837.8224     645.995633       0.00000
  59    0.1000      191.8210        0.0104      837.7137      837.7241     645.903082       7.83399
  58    0.1403      191.8189        0.0146      837.6563      837.6710     645.852044      10.68786
  57    0.1968      191.8161        0.0205      837.5614      837.5819     645.765801      12.88163
  56    0.2760      191.8125        0.0287      837.4070      837.4357     645.623247      15.18985
  55    0.3871      191.8077        0.0401      837.1641      837.2042     645.396410      17.23048
  54    0.5430      191.8018        0.0558      836.7876      836.8434     645.041648      19.20393
  53    0.7617      191.7948        0.0773      836.1942      836.2714     644.476669      21.80128
  52     1.069      191.7874        0.1067      835.2926      835.3993     643.611901      23.78717
  51     1.499      191.7816        0.1461      834.0471      834.1932     642.411617      23.54026
  50     2.102      191.7819        0.1990      832.4995      832.6986     640.916609      20.90223
  49     2.949      191.7974        0.2729      830.7483      831.0212     639.223766      16.87474
  48     4.137      191.8390        0.3755      828.8944      829.2699     637.430904      12.74017
  47     5.803      191.9117        0.5176      826.9459      827.4636     635.551907       9.51866
  46     8.139      192.0105        0.7153      824.8978      825.6131     633.602639       7.03991
  45     11.42      192.1228        0.9901      822.7006      823.6907     631.567831       5.23889
  44     16.01      192.2386        1.3714      820.2525      821.6238     629.385235       4.00619
  43     22.46      192.3445        1.9011      817.4463      819.3474     627.002879       3.11740
  42     31.51      192.3922        2.6369      814.2518      816.8887     624.496464       2.33814
  41     44.20      192.2906        3.6609      810.6480      814.3089     622.018346       1.64805
  40     62.00      191.9682        5.0720      806.4553      811.5273     619.559057       1.16599
  39     85.78      191.3035        6.9300      801.7674      808.6974     617.393932       0.76853
  38     109.5      190.5028        8.7884      797.4817      806.2701     615.767280       0.57739
  37     133.1      189.6988       10.5435      793.5510      804.0944     614.395663       0.49257
  36     156.8      188.8991       12.2198      789.8548      802.0746     613.175491       0.43267
  35     180.6      188.0250       13.9707      786.0084      799.9791     611.954180       0.43359
  34     202.8      187.1594       15.6281      782.2124      797.8405     610.681042       0.48339
  33     228.4      186.2654       17.2888      778.0467      795.3356     609.070127       0.53150
  32     252.2      185.3631       18.9243      773.4741      792.3984     607.035251       0.72230
  31     276.0      184.4660       20.5122      768.4389      788.9511     604.485090       0.90520
  30     299.8      183.5589       22.0842      762.7642      784.8484     601.289537       1.13429
  29     323.5      182.6512       23.6311      756.6288      780.2599     597.608714       1.30654
  28     347.3      181.7545       25.1367      750.2254      775.3621     593.607671       1.42021
  27     371.1      180.8726       26.5969      743.7251      770.3219     589.449328       1.47604
  26     394.9      179.9837       28.0508      736.8957      764.9466     584.962917       1.59249
  25     418.6      179.1040       29.4749      729.8721      759.3471     580.243009       1.67537
  24     442.4      178.2342       30.8719      722.6783      753.5501     575.315892       1.74892
  23     466.2      177.3723       32.2468      715.4381      747.6848     570.312528       1.77599
  22     489.9      176.5323       33.5814      708.2772      741.8586     565.326284       1.76991
  21     513.7      175.7029       34.8993      701.0441      735.9434     560.240477       1.80525
  20     537.5      174.9003       36.1807      693.8325      730.0131     555.112835       1.82010
  19     561.3      174.1268       37.4285      686.6319      724.0604     549.933638       1.83840
  18     585.0      173.3679       38.6702      679.3701      718.0403     544.672403       1.86752
  17     608.8      172.6442       39.8768      672.2525      712.1292     539.485074       1.84129
  16     632.6      171.9597       41.0494      665.2624      706.3118     534.352113       1.82199
  15     656.4      171.3097       42.2124      658.1915      700.4038     529.094075       1.86639
  14     680.1      170.7206       43.3423      651.1209      694.4632     523.742565       1.89957
  13     703.9      170.2039       44.4401      644.0582      688.4982     518.294355       1.93389
  12     727.7      169.7705       45.5224      636.8758      682.3982     512.627718       2.01142
  11     751.5      169.4550       46.5884      629.4911      676.0795     506.624469       2.13091
  10     775.2      169.3009       47.6250      621.9804      669.6053     500.304401       2.24336
   9     799.0      169.3634       48.6322      614.3441      662.9763     493.612891       2.37521
   8     822.8      131.5958      399.0495      215.2763      614.3257     482.729973       3.86299
   7     846.6       95.4885      493.6789       75.5228      569.2017     473.713289       3.20055
   6     870.4       60.6039      500.3510       26.5257      526.8767     466.272791       2.64107
   5     894.1       26.5828      477.4332        9.3254      486.7586     460.175829       2.16417
   4     917.9       25.7870      472.9053        9.2223      482.1276     456.340553       1.36136
   3     941.7       24.9988      468.4840        9.1210      477.6050     452.606203       1.32554
   2     965.5       24.2259      464.1871        9.0222      473.2093     448.983408       1.28594
   1     989.2       23.4705      460.0065        8.9257      468.9322     445.461679       1.24981
   0    1013.0       22.7357      455.9315        8.8314      464.7629     442.027193       1.21936



 Wavenumbers:  2600. -  3250. cm-1, ATM      1
 LEVEL PRESSURE   UPWARD FLUX   DIFDOWN FLUX  DIRDOWN FLUX  DOWNWARD FLUX   NET FLUX    HEATING RATE
          mb          W/m2          W/m2          W/m2        W/m2          W/m2       degree/day
  60   .000300        0.1979        0.0000        7.3841        7.3841       7.186169       0.00000
  59    0.1000        0.1979        0.0000        7.3840        7.3840       7.186096       0.00613
  58    0.1403        0.1979        0.0000        7.3840        7.3840       7.186067       0.00614
  57    0.1968        0.1979        0.0000        7.3839        7.3839       7.186026       0.00616
  56    0.2760        0.1979        0.0000        7.3839        7.3839       7.185968       0.00613
  55    0.3871        0.1979        0.0000        7.3838        7.3838       7.185884       0.00641
  54    0.5430        0.1979        0.0000        7.3837        7.3837       7.185759       0.00678
  53    0.7617        0.1979        0.0000        7.3835        7.3835       7.185561       0.00761
  52     1.069        0.1979        0.0000        7.3831        7.3831       7.185231       0.00908
  51     1.499        0.1979        0.0000        7.3825        7.3825       7.184623       0.01193
  50     2.102        0.1979        0.0000        7.3814        7.3814       7.183534       0.01522
  49     2.949        0.1979        0.0000        7.3795        7.3795       7.181649       0.01880
  48     4.137        0.1979        0.0000        7.3765        7.3765       7.178635       0.02142
  47     5.803        0.1979        0.0000        7.3721        7.3721       7.174204       0.02245
  46     8.139        0.1979        0.0000        7.3661        7.3661       7.168197       0.02169
  45     11.42        0.1979        0.0000        7.3586        7.3586       7.160691       0.01932
  44     16.01        0.1979        0.0000        7.3500        7.3500       7.152117       0.01574
  43     22.46        0.1979        0.0000        7.3407        7.3407       7.142804       0.01219
  42     31.51        0.1979        0.0000        7.3297        7.3297       7.131846       0.01022
  41     44.20        0.1979        0.0000        7.3134        7.3134       7.115506       0.01087
  40     62.00        0.1979        0.0000        7.2860        7.2860       7.088121       0.01298
  39     85.78        0.1979        0.0000        7.2438        7.2439       7.045969       0.01496
  38     109.5        0.1979        0.0000        7.1969        7.1969       6.999023       0.01666
  37     133.1        0.1979        0.0000        7.1517        7.1518       6.953849       0.01622
  36     156.8        0.1980        0.0001        7.1092        7.1093       6.911323       0.01508
  35     180.6        0.1980        0.0001        7.0662        7.0663       6.868267       0.01529
  34     202.8        0.1980        0.0001        7.0262        7.0262       6.828193       0.01522
  33     228.4        0.1981        0.0001        6.9846        6.9847       6.786603       0.01372
  32     252.2        0.1982        0.0001        6.9407        6.9408       6.742574       0.01563
  31     276.0        0.1983        0.0001        6.8941        6.8942       6.695908       0.01656
  30     299.8        0.1985        0.0001        6.8424        6.8426       6.644067       0.01840
  29     323.5        0.1987        0.0001        6.7849        6.7850       6.586339       0.02049
  28     347.3        0.1990        0.0001        6.7206        6.7207       6.521758       0.02292
  27     371.1        0.1993        0.0001        6.6496        6.6497       6.450392       0.02533
  26     394.9        0.1997        0.0001        6.5676        6.5677       6.367991       0.02925
  25     418.6        0.2002        0.0001        6.4741        6.4743       6.274034       0.03335
  24     442.4        0.2008        0.0001        6.3671        6.3673       6.166449       0.03819
  23     466.2        0.2016        0.0001        6.2486        6.2487       6.047144       0.04235
  22     489.9        0.2024        0.0002        6.1205        6.1206       5.918224       0.04576
  21     513.7        0.2034        0.0002        5.9812        5.9813       5.777932       0.04980
  20     537.5        0.2046        0.0002        5.8338        5.8340       5.629373       0.05273
  19     561.3        0.2060        0.0002        5.6819        5.6820       5.476013       0.05444
  18     585.0        0.2077        0.0002        5.5274        5.5276       5.319901       0.05541
  17     608.8        0.2096        0.0002        5.3761        5.3762       5.166623       0.05441
  16     632.6        0.2118        0.0002        5.2281        5.2283       5.016448       0.05331
  15     656.4        0.2144        0.0002        5.0791        5.0793       4.864812       0.05382
  14     680.1        0.2176        0.0002        4.9299        4.9300       4.712465       0.05408
  13     703.9        0.2213        0.0002        4.7798        4.7799       4.558618       0.05461
  12     727.7        0.2260        0.0002        4.6253        4.6254       4.399487       0.05648
  11     751.5        0.2318        0.0002        4.4633        4.4634       4.231614       0.05959
  10     775.2        0.2393        0.0002        4.2949        4.2950       4.055709       0.06244
   9     799.0        0.2491        0.0002        4.1205        4.1207       3.871636       0.06534
   8     822.8        0.1530        1.3445        1.2755        2.6200       2.466971       0.49860
   7     846.6        0.0918        1.2552        0.3949        1.6501       1.558309       0.32254
   6     870.4        0.0518        0.9090        0.1224        1.0313       0.979581       0.20542
   5     894.1        0.0235        0.6030        0.0379        0.6409       0.617423       0.12855
   4     917.9        0.0242        0.5762        0.0364        0.6125       0.588347       0.01032
   3     941.7        0.0250        0.5507        0.0349        0.5856       0.560629       0.00984
   2     965.5        0.0259        0.5267        0.0334        0.5601       0.534214       0.00938
   1     989.2        0.0269        0.5039        0.0321        0.5359       0.508999       0.00895
   0    1013.0        0.0282        0.4822        0.0308        0.5129       0.484730       0.00862



 Wavenumbers:  3250. -  4000. cm-1, ATM      1
 LEVEL PRESSURE   UPWARD FLUX   DIFDOWN FLUX  DIRDOWN FLUX  DOWNWARD FLUX   NET FLUX    HEATING RATE
          mb          W/m2          W/m2          W/m2        W/m2          W/m2       degree/day
  60   .000300        0.0020        0.0000       12.4485       12.4485      12.446415       0.00000
  59    0.1000        0.0020        0.0000       12.4290       12.4290      12.426913       1.65079
  58    0.1403        0.0020        0.0000       12.4252       12.4252      12.423198       0.77776
  57    0.1968        0.0020        0.0000       12.4208       12.4208      12.418726       0.66803
  56    0.2760        0.0020        0.0000       12.4156       12.4156      12.413563       0.55013
  55    0.3871        0.0020        0.0000       12.4096       12.4096      12.407530       0.45825
  54    0.5430        0.0020        0.0000       12.4022       12.4022      12.400202       0.39669
  53    0.7617        0.0020        0.0000       12.3928       12.3928      12.390742       0.36506
  52     1.069        0.0020        0.0000       12.3807       12.3807      12.378701       0.33119
  51     1.499        0.0020        0.0000       12.3664       12.3664      12.364344       0.28159
  50     2.102        0.0020        0.0000       12.3498       12.3498      12.347710       0.23256
  49     2.949        0.0020        0.0000       12.3302       12.3302      12.328175       0.19473
  48     4.137        0.0020        0.0000       12.3067       12.3068      12.304710       0.16675
  47     5.803        0.0020        0.0000       12.2766       12.2766      12.274592       0.15257
  46     8.139        0.0020        0.0000       12.2347       12.2348      12.232724       0.15121
  45     11.42        0.0020        0.0000       12.1733       12.1733      12.171311       0.15812
  44     16.01        0.0020        0.0000       12.0830       12.0830      12.081000       0.16577
  43     22.46        0.0020        0.0000       11.9527       11.9527      11.950710       0.17049
  42     31.51        0.0020        0.0000       11.7748       11.7748      11.772825       0.16594
  41     44.20        0.0020        0.0001       11.5551       11.5552      11.553188       0.14607
  40     62.00        0.0020        0.0001       11.3050       11.3051      11.303120       0.11856
  39     85.78        0.0019        0.0001       11.0142       11.0143      11.012332       0.10322
  38     109.5        0.0019        0.0001       10.7175       10.7176      10.715712       0.10529
  37     133.1        0.0019        0.0002       10.4459       10.4460      10.444166       0.09752
  36     156.8        0.0019        0.0002       10.1944       10.1946      10.192778       0.08914
  35     180.6        0.0018        0.0002        9.9218        9.9220       9.920220       0.09676
  34     202.8        0.0018        0.0002        9.5970        9.5973       9.595450       0.12331
  33     228.4        0.0018        0.0002        9.1820        9.1823       9.180513       0.13690
  32     252.2        0.0018        0.0003        8.7004        8.7006       8.698872       0.17096
  31     276.0        0.0017        0.0003        8.1693        8.1695       8.167799       0.18851
  30     299.8        0.0017        0.0003        7.5886        7.5889       7.587148       0.20611
  29     323.5        0.0017        0.0003        6.9823        6.9825       6.980818       0.21522
  28     347.3        0.0017        0.0003        6.3629        6.3631       6.361406       0.21987
  27     371.1        0.0017        0.0002        5.7699        5.7701       5.768430       0.21048
  26     394.9        0.0017        0.0002        5.2041        5.2043       5.202591       0.20085
  25     418.6        0.0017        0.0002        4.6962        4.6964       4.694673       0.18029
  24     442.4        0.0017        0.0002        4.2409        4.2411       4.239391       0.16161
  23     466.2        0.0017        0.0002        3.8328        3.8330       3.831217       0.14489
  22     489.9        0.0018        0.0002        3.4648        3.4650       3.463262       0.13061
  21     513.7        0.0018        0.0002        3.1218        3.1220       3.120169       0.12178
  20     537.5        0.0019        0.0002        2.8040        2.8042       2.802294       0.11283
  19     561.3        0.0020        0.0002        2.5083        2.5084       2.506452       0.10501
  18     585.0        0.0021        0.0001        2.2301        2.2302       2.228148       0.09879
  17     608.8        0.0022        0.0001        1.9731        1.9732       1.970986       0.09128
  16     632.6        0.0024        0.0001        1.7337        1.7338       1.731445       0.08503
  15     656.4        0.0026        0.0001        1.5041        1.5042       1.501573       0.08160
  14     680.1        0.0030        0.0001        1.2888        1.2888       1.285867       0.07657
  13     703.9        0.0034        0.0001        1.0908        1.0908       1.087410       0.07044
  12     727.7        0.0041        0.0001        0.9082        0.9083       0.904157       0.06505
  11     751.5        0.0051        0.0001        0.7390        0.7391       0.733994       0.06040
  10     775.2        0.0066        0.0000        0.5856        0.5857       0.579082       0.05499
   9     799.0        0.0090        0.0000        0.4484        0.4484       0.439389       0.04959
   8     822.8        0.0041        0.1055        0.1099        0.2154       0.211336       0.08095
   7     846.6        0.0018        0.0734        0.0262        0.0996       0.097809       0.04030
   6     870.4        0.0007        0.0382        0.0061        0.0443       0.043642       0.01923
   5     894.1        0.0000        0.0175        0.0014        0.0189       0.018902       0.00878
   4     917.9        0.0000        0.0111        0.0009        0.0119       0.011946       0.00247
   3     941.7        0.0000        0.0067        0.0005        0.0072       0.007206       0.00168
   2     965.5        0.0000        0.0038        0.0003        0.0042       0.004150       0.00108
   1     989.2        0.0000        0.0021        0.0002        0.0023       0.002275       0.00067
   0    1013.0        0.0000        0.0011        0.0001        0.0012       0.001180       0.00039



 Wavenumbers:  4000. -  4650. cm-1, ATM      1
 LEVEL PRESSURE   UPWARD FLUX   DIFDOWN FLUX  DIRDOWN FLUX  DOWNWARD FLUX   NET FLUX    HEATING RATE
          mb          W/m2          W/m2          W/m2        W/m2          W/m2       degree/day
  60   .000300        2.2053        0.0000       14.6183       14.6183      12.412914       0.00000
  59    0.1000        2.2053        0.0000       14.6182       14.6182      12.412905       0.00076
  58    0.1403        2.2053        0.0000       14.6182       14.6182      12.412901       0.00076
  57    0.1968        2.2053        0.0000       14.6182       14.6182      12.412896       0.00077
  56    0.2760        2.2053        0.0000       14.6182       14.6182      12.412889       0.00076
  55    0.3871        2.2053        0.0000       14.6182       14.6182      12.412878       0.00080
  54    0.5430        2.2053        0.0000       14.6182       14.6182      12.412863       0.00085
