

 Wavenumbers:   820. - 50000. cm-1, ATM      1
 LEVEL PRESSURE   UPWARD FLUX   DIFDOWN FLUX  DIRDOWN FLUX  DOWNWARD FLUX   NET FLUX    HEATING RATE
          mb          W/m2          W/m2          W/m2        W/m2          W/m2       degree/day
  59    0.1000      867.9989        0.0000     1360.8491     1360.8491     492.850213       0.00000
  58    0.1400      868.0007        0.0068     1360.7700     1360.7768     492.776072      15.64215
  57    0.1970      868.0038        0.0164     1360.6656     1360.6820     492.678134      14.50019
  56    0.2760      868.0094        0.0297     1360.4973     1360.5270     492.517624      17.14644
  55    0.3870      868.0194        0.0483     1360.2162     1360.2644     492.245001      20.72707
  54    0.5430      868.0375        0.0741     1359.7485     1359.8226     491.785086      24.88004
  53    0.7620      868.0690        0.1103     1359.0015     1359.1118     491.042825      28.60298
  52     1.070      868.1219        0.1588     1357.8888     1358.0475     489.925637      30.61075
  51     1.500      868.2195        0.2263     1356.1988     1356.4251     488.205574      33.75783
  50     2.100      868.3817        0.3189     1354.0972     1354.4161     486.034386      30.53828
  49     2.950      868.6351        0.4481     1351.8433     1352.2914     483.656290      23.61070
  48     4.130      869.0040        0.6284     1349.6358     1350.2642     481.260204      17.13638
  47     5.800      869.5159        0.8800     1347.4520     1348.3320     478.816081      12.35108
  46     8.130      870.2072        1.2315     1345.1751     1346.4066     476.199399       9.47749
  45     11.41      871.1188        1.7224     1342.7079     1344.4303     473.311487       7.43034
  44     16.01      872.3123        2.4066     1339.9281     1342.3347     470.022385       6.03418
  43     22.46      873.9246        3.3588     1336.6282     1339.9871     466.062480       5.18112
  42     31.51      876.1331        4.6820     1332.6189     1337.3009     461.167758       4.56434
  41     44.20      879.0337        6.5241     1327.8040     1334.3281     455.294307       3.90598
  40     62.00      882.5624        9.0885     1322.1310     1331.2195     448.657178       3.14673
  39     85.77      885.8868       12.5039     1316.0883     1328.5922     442.705476       2.11305
  38     109.5      888.3583       15.9128     1310.8699     1326.7827     438.424350       1.51994
  37     133.3      890.2938       19.2892     1306.1391     1325.4283     435.134572       1.16749
  36     157.1      891.8437       22.6608     1301.7285     1324.3892     432.545501       0.91882
  35     180.9      893.0743       26.0153     1297.5383     1323.5536     430.479357       0.73355
  34     204.7      894.1781       29.3329     1293.4065     1322.7394     428.561263       0.68070
  33     228.4      895.2401       32.6349     1289.2005     1321.8354     426.595232       0.69801
  32     252.2      896.2572       35.9085     1284.8824     1320.7909     424.533706       0.73160
  31     276.0      897.2055       39.1613     1280.5653     1319.7266     422.521117       0.71454
  30     299.8      898.0825       42.3894     1276.2839     1318.6733     420.590772       0.68505
  29     323.5      898.8761       45.5818     1272.1283     1317.7102     418.834035       0.62370
  28     347.3      899.6285       48.7779     1267.8782     1316.6560     417.027468       0.64139
  27     371.1      900.3658       51.9313     1263.0375     1314.9687     414.602940       0.86043
  26     394.9      901.1056       55.0597     1257.3469     1312.4066     411.301049       1.17179
  25     418.6      901.8476       58.1861     1251.3901     1309.5763     407.728651       1.26832
  24     442.4      902.5806       61.2528     1245.4620     1306.7149     404.134306       1.27611
  23     466.2      903.3321       64.3342     1239.3762     1303.7103     400.378190       1.33299
  22     489.9      904.1017       67.3721     1233.1568     1300.5289     396.427253       1.40212
  21     513.7      904.8937       70.3597     1226.8116     1297.1712     392.277519       1.47329
  20     537.5      905.7363       73.3715     1220.1629     1293.5344     387.798069       1.58969
  19     561.3      906.6204       76.3398     1213.3419     1289.6817     383.061336       1.68170
  18     585.0      907.5527       79.2559     1206.3658     1285.6217     378.069007       1.77244
  17     608.8      908.5617       82.1820     1199.1415     1281.3234     372.761731       1.88347
  16     632.6      909.6318       85.0866     1191.9457     1277.0323     367.400574       1.90259
  15     656.4      910.7657       87.9589     1184.8126     1272.7715     362.005755       1.91534
  14     680.1      911.9699       90.7917     1177.7612     1268.5529     356.583022       1.92525
  13     703.9      913.2589       93.6312     1170.7810     1264.4123     351.153384       1.92689
  12     727.7      914.6078       96.4362     1164.0452     1260.4814     345.873650       1.87369
  11     751.5      916.0292       99.2181     1157.4888     1256.7069     340.677688       1.84474
  10     775.2      917.5252      101.9668     1151.1183     1253.0851     335.559946       1.81621
   9     799.0      919.1184      104.7181     1144.8574     1249.5755     330.457115       1.81168
   8     822.8      920.7895      107.4388     1138.7985     1246.2373     325.447846       1.77771
   7     846.6      922.5524      110.1376     1132.9030     1243.0406     320.488143       1.76086
   6     870.4      924.4145      112.8098     1127.1604     1239.9702     315.555687       1.75045
   5     894.1      926.3844      115.4532     1121.5673     1237.0205     310.636150       1.74660
   4     917.9      928.4463      118.0975     1116.1582     1234.2558     305.809514       1.71362
   3     941.7      930.5776      120.7230     1110.9747     1231.6977     301.120072       1.66421
   2     965.5      932.7810      123.3328     1105.9959     1229.3287     296.547750       1.62264
   1     989.2      935.0738      125.9237     1101.1905     1227.1142     292.040346       1.59961
   0    1013.0      937.4677      128.5064     1096.5367     1225.0431     287.575394       1.58521



 Wavenumbers:  2600. -  3250. cm-1, ATM      1
 LEVEL PRESSURE   UPWARD FLUX   DIFDOWN FLUX  DIRDOWN FLUX  DOWNWARD FLUX   NET FLUX    HEATING RATE
          mb          W/m2          W/m2          W/m2        W/m2          W/m2       degree/day
  59    0.1000        0.6704        0.0000       11.9937       11.9937      11.323355       0.00000
  58    0.1400        0.6704        0.0000       11.9937       11.9937      11.323326       0.00613
  57    0.1970        0.6704        0.0000       11.9936       11.9936      11.323285       0.00614
  56    0.2760        0.6704        0.0000       11.9936       11.9936      11.323225       0.00633
  55    0.3870        0.6704        0.0000       11.9935       11.9935      11.323138       0.00668
  54    0.5430        0.6704        0.0000       11.9934       11.9934      11.323000       0.00746
  53    0.7620        0.6704        0.0000       11.9931       11.9931      11.322771       0.00882
  52     1.070        0.6704        0.0000       11.9927       11.9927      11.322386       0.01053
  51     1.500        0.6704        0.0000       11.9921       11.9921      11.321719       0.01309
  50     2.100        0.6704        0.0000       11.9910       11.9910      11.320602       0.01572
  49     2.950        0.6704        0.0000       11.9891       11.9891      11.318781       0.01808
  48     4.130        0.6704        0.0000       11.9863       11.9863      11.315969       0.02011
  47     5.800        0.6704        0.0000       11.9822       11.9822      11.311833       0.02090
  46     8.130        0.6704        0.0000       11.9764       11.9764      11.306026       0.02103
  45     11.41        0.6704        0.0000       11.9686       11.9686      11.298244       0.02002
  44     16.01        0.6704        0.0000       11.9587       11.9587      11.288369       0.01812
  43     22.46        0.6704        0.0000       11.9469       11.9469      11.276513       0.01551
  42     31.51        0.6704        0.0000       11.9326       11.9326      11.262207       0.01334
  41     44.20        0.6704        0.0000       11.9144       11.9144      11.243967       0.01213
  40     62.00        0.6704        0.0000       11.8882       11.8882      11.217761       0.01242
  39     85.77        0.6705        0.0000       11.8479       11.8480      11.177443       0.01431
  38     109.5        0.6707        0.0000       11.8004       11.8005      11.129799       0.01692
  37     133.3        0.6708        0.0001       11.7500       11.7501      11.079234       0.01794
  36     157.1        0.6710        0.0001       11.6981       11.6982      11.027180       0.01847
  35     180.9        0.6712        0.0001       11.6460       11.6461      10.974868       0.01857
  34     204.7        0.6715        0.0001       11.5944       11.5945      10.923040       0.01839
  33     228.4        0.6718        0.0001       11.5432       11.5433      10.871542       0.01828
  32     252.2        0.6721        0.0001       11.4924       11.4925      10.820427       0.01814
  31     276.0        0.6725        0.0001       11.4428       11.4429      10.770428       0.01775
  30     299.8        0.6730        0.0001       11.3949       11.3950      10.722040       0.01717
  29     323.5        0.6735        0.0001       11.3497       11.3498      10.676315       0.01623
  28     347.3        0.6741        0.0001       11.3050       11.3051      10.631031       0.01608
  27     371.1        0.6748        0.0001       11.2558       11.2560      10.581131       0.01771
  26     394.9        0.6758        0.0001       11.1996       11.1998      10.523955       0.02029
  25     418.6        0.6770        0.0002       11.1410       11.1412      10.464198       0.02122
  24     442.4        0.6783        0.0002       11.0819       11.0821      10.403787       0.02145
  23     466.2        0.6799        0.0002       11.0197       11.0199      10.340015       0.02263
  22     489.9        0.6816        0.0002       10.9543       10.9545      10.272849       0.02384
  21     513.7        0.6836        0.0002       10.8847       10.8848      10.201235       0.02543
  20     537.5        0.6860        0.0002       10.8081       10.8083      10.122297       0.02801
  19     561.3        0.6887        0.0002       10.7252       10.7254      10.036689       0.03039
  18     585.0        0.6918        0.0002       10.6351       10.6353       9.943447       0.03310
  17     608.8        0.6954        0.0002       10.5360       10.5362       9.840729       0.03645
  16     632.6        0.6995        0.0002       10.4314       10.4316       9.732083       0.03856
  15     656.4        0.7041        0.0002       10.3217       10.3219       9.617857       0.04055
  14     680.1        0.7091        0.0002       10.2071       10.2073       9.498215       0.04248
  13     703.9        0.7147        0.0002       10.0880       10.0882       9.373504       0.04426
  12     727.7        0.7208        0.0002        9.9686        9.9688       9.248051       0.04452
  11     751.5        0.7274        0.0002        9.8489        9.8491       9.121701       0.04486
  10     775.2        0.7345        0.0002        9.7297        9.7299       8.995409       0.04482
   9     799.0        0.7423        0.0002        9.6105        9.6108       8.868432       0.04508
   8     822.8        0.7507        0.0002        9.4940        9.4942       8.743536       0.04432
   7     846.6        0.7598        0.0002        9.3798        9.3801       8.620309       0.04375
   6     870.4        0.7696        0.0003        9.2682        9.2685       8.498855       0.04310
   5     894.1        0.7803        0.0003        9.1595        9.1597       8.379408       0.04241
   4     917.9        0.7919        0.0003        9.0552        9.0554       8.263588       0.04112
   3     941.7        0.8041        0.0003        8.9568        8.9571       8.152928       0.03927
   2     965.5        0.8172        0.0003        8.8639        8.8642       8.046932       0.03762
   1     989.2        0.8313        0.0003        8.7757        8.7760       7.944620       0.03631
   0    1013.0        0.8466        0.0003        8.6919        8.6922       7.845558       0.03517



 Wavenumbers:  3250. -  4000. cm-1, ATM      1
 LEVEL PRESSURE   UPWARD FLUX   DIFDOWN FLUX  DIRDOWN FLUX  DOWNWARD FLUX   NET FLUX    HEATING RATE
          mb          W/m2          W/m2          W/m2        W/m2          W/m2       degree/day
  59    0.1000        0.9921        0.0000       20.2197       20.2197      19.227563       0.00000
  58    0.1400        0.9921        0.0000       20.2044       20.2044      19.212333       3.21320
  57    0.1970        0.9921        0.0000       20.1937       20.1937      19.201627       1.58506
  56    0.2760        0.9921        0.0000       20.1841       20.1841      19.192012       1.02710
  55    0.3870        0.9921        0.0000       20.1739       20.1739      19.181848       0.77273
  54    0.5430        0.9921        0.0000       20.1632       20.1632      19.171105       0.58121
  53    0.7620        0.9921        0.0000       20.1518       20.1518      19.159693       0.43976
  52     1.070        0.9921        0.0000       20.1397       20.1397      19.147564       0.33233
  51     1.500        0.9921        0.0000       20.1251       20.1251      19.133042       0.28500
  50     2.100        0.9921        0.0000       20.1072       20.1072      19.115144       0.25174
  49     2.950        0.9921        0.0000       20.0845       20.0845      19.092449       0.22533
  48     4.130        0.9921        0.0000       20.0557       20.0557      19.063573       0.20651
  47     5.800        0.9921        0.0000       20.0186       20.0186      19.026492       0.18738
  46     8.130        0.9921        0.0000       19.9695       19.9695      18.977448       0.17764
  45     11.41        0.9921        0.0000       19.9014       19.9015      18.909373       0.17515
  44     16.01        0.9921        0.0000       19.8019       19.8019      18.809806       0.18267
  43     22.46        0.9921        0.0000       19.6535       19.6535      18.661466       0.19409
  42     31.51        0.9921        0.0000       19.4354       19.4354      18.443386       0.20336
  41     44.20        0.9920        0.0001       19.1347       19.1348      18.142731       0.19994
  40     62.00        0.9920        0.0001       18.7612       18.7613      17.769303       0.17705
  39     85.77        0.9920        0.0001       18.3477       18.3478      17.355763       0.14682
  38     109.5        0.9920        0.0002       17.9632       17.9633      16.971314       0.13649
  37     133.3        0.9920        0.0002       17.6005       17.6007      16.608677       0.12869
  36     157.1        0.9920        0.0002       17.2513       17.2515      16.259451       0.12393
  35     180.9        0.9920        0.0002       16.9036       16.9039      15.911840       0.12341
  34     204.7        0.9921        0.0003       16.5410       16.5413      15.549205       0.12869
  33     228.4        0.9922        0.0003       16.1412       16.1415      15.149361       0.14196
  32     252.2        0.9923        0.0003       15.6954       15.6957      14.703418       0.15826
  31     276.0        0.9926        0.0003       15.2546       15.2550      14.262405       0.15657
  30     299.8        0.9929        0.0003       14.8282       14.8286      13.835718       0.15142
  29     323.5        0.9932        0.0004       14.4370       14.4374      13.444168       0.13901
  28     347.3        0.9937        0.0004       14.0406       14.0410      13.047351       0.14088
  27     371.1        0.9946        0.0004       13.5432       13.5436      12.549054       0.17684
  26     394.9        0.9962        0.0004       12.9292       12.9296      11.933377       0.21849
  25     418.6        0.9984        0.0004       12.3153       12.3156      11.317204       0.21876
  24     442.4        1.0012        0.0004       11.7330       11.7334      10.732150       0.20771
  23     466.2        1.0048        0.0004       11.1535       11.1539      10.149010       0.20695
  22     489.9        1.0095        0.0004       10.5687       10.5691       9.559577       0.20918
  21     513.7        1.0154        0.0004        9.9833        9.9837       8.968263       0.20994
  20     537.5        1.0232        0.0004        9.3938        9.3942       8.370977       0.21197
  19     561.3        1.0330        0.0004        8.8191        8.8195       7.786470       0.20752
  18     585.0        1.0454        0.0004        8.2685        8.2688       7.223451       0.19989
  17     608.8        1.0611        0.0003        7.7400        7.7404       6.679333       0.19310
  16     632.6        1.0798        0.0003        7.2613        7.2616       6.181830       0.17656
  15     656.4        1.1020        0.0003        6.8268        6.8271       5.725072       0.16216
  14     680.1        1.1284        0.0003        6.4282        6.4285       5.300156       0.15086
  13     703.9        1.1592        0.0003        6.0622        6.0625       4.903329       0.14083
  12     727.7        1.1941        0.0003        5.7336        5.7339       4.539753       0.12903
  11     751.5        1.2340        0.0003        5.4331        5.4334       4.199492       0.12080
  10     775.2        1.2793        0.0003        5.1570        5.1573       3.877985       0.11410
   9     799.0        1.3315        0.0003        4.8998        4.9001       3.568659       0.10982
   8     822.8        1.3904        0.0003        4.6636        4.6638       3.273466       0.10476
   7     846.6        1.4573        0.0003        4.4446        4.4449       2.987628       0.10148
   6     870.4        1.5336        0.0003        4.2408        4.2411       2.707452       0.09943
   5     894.1        1.6209        0.0003        4.0505        4.0508       2.429870       0.09855
   4     917.9        1.7184        0.0003        3.8764        3.8766       2.158197       0.09645
   3     941.7        1.8260        0.0003        3.7183        3.7186       1.892605       0.09425
   2     965.5        1.9443        0.0003        3.5747        3.5749       1.630651       0.09296
   1     989.2        2.0760        0.0003        3.4425        3.4428       1.366769       0.09365
   0    1013.0        2.2238        0.0003        3.3208        3.3210       1.097272       0.09568



 Wavenumbers:  4000. -  4650. cm-1, ATM      1
 LEVEL PRESSURE   UPWARD FLUX   DIFDOWN FLUX  DIRDOWN FLUX  DOWNWARD FLUX   NET FLUX    HEATING RATE
          mb          W/m2          W/m2          W/m2        W/m2          W/m2       degree/day
  59    0.1000        1.6624        0.0000       23.7440       23.7440      22.081623       0.00000
  58    0.1400        1.6624        0.0000       23.7440       23.7440      22.081619       0.00078
  57    0.1970        1.6624        0.0000       23.7440       23.7440      22.081614       0.00078
  56    0.2760        1.6624        0.0000       23.7440       23.7440      22.081606       0.00081
  55    0.3870        1.6624        0.0000       23.7440       23.7440      22.081595       0.00085
  54    0.5430        1.6624        0.0000       23.7439       23.7439      22.081577       0.00095
  53    0.7620        1.6624        0.0000       23.7439       23.7439      22.081548       0.00113
  52     1.070        1.6624        0.0000       23.7439       23.7439      22.081499       0.00136
  51     1.500        1.6624        0.0000       23.7438       23.7438      22.081412       0.00170
  50     2.100        1.6624        0.0000       23.7436       23.7436      22.081265       0.00207
