

 Wavenumbers:   820. - 50000. cm-1, ATM      1
 LEVEL PRESSURE   UPWARD FLUX   DIFDOWN FLUX  DIRDOWN FLUX  DOWNWARD FLUX   NET FLUX    HEATING RATE
          mb          W/m2          W/m2          W/m2        W/m2          W/m2       degree/day
  59    0.1000      790.5161        0.0000     1360.8491     1360.8491     570.332989       0.00000
  58    0.1400      790.5177        0.0066     1360.7700     1360.7766     570.258910      15.62902
  57    0.1970      790.5204        0.0159     1360.6656     1360.6814     570.161083      14.48383
  56    0.2760      790.5253        0.0288     1360.4973     1360.5261     570.000776      17.12476
  55    0.3870      790.5344        0.0468     1360.2162     1360.2629     569.728527      20.69862
  54    0.5430      790.5510        0.0718     1359.7485     1359.8203     569.269295      24.84313
  53    0.7620      790.5801        0.1068     1359.0015     1359.1083     568.528234      28.55672
  52     1.070      790.6294        0.1537     1357.8888     1358.0425     567.413083      30.55494
  51     1.500      790.7209        0.2189     1356.1988     1356.4177     565.696810      33.68344
  50     2.100      790.8736        0.3084     1354.0972     1354.4056     563.531953      30.44924
  49     2.950      791.1127        0.4332     1351.8433     1352.2765     561.163764      23.51235
  48     4.130      791.4610        0.6073     1349.6358     1350.2431     558.782079      17.03338
  47     5.800      791.9443        0.8502     1347.4520     1348.3022     556.357881      12.25040
  46     8.130      792.5966        1.1895     1345.1751     1346.3646     553.767987       9.38047
  45     11.41      793.4560        1.6633     1342.7079     1344.3712     550.915184       7.34000
  44     16.01      794.5799        2.3235     1339.9281     1342.2516     547.671735       5.95042
  43     22.46      796.0970        3.2420     1336.6282     1339.8702     543.773244       5.10076
  42     31.51      798.1744        4.5180     1332.6189     1337.1369     538.962459       4.48607
  41     44.20      800.8993        6.2938     1327.8040     1334.0978     533.198480       3.83318
  40     62.00      804.2042        8.7651     1322.1310     1330.8961     526.691935       3.08481
  39     85.77      807.2893       12.0554     1316.0883     1328.1437     520.854391       2.07252
  38     109.5      809.5605       15.3382     1310.8699     1326.2081     516.647576       1.49356
  37     133.3      811.3193       18.5886     1306.1391     1324.7277     513.408408       1.14953
  36     157.1      812.7093       21.8331     1301.7285     1323.5616     510.852283       0.90713
  35     180.9      813.7944       25.0602     1297.5383     1322.5985     508.804130       0.72716
  34     204.7      814.7594       28.2506     1293.4065     1321.6571     506.897728       0.67655
  33     228.4      815.6847       31.4249     1289.2005     1320.6254     504.940717       0.69480
  32     252.2      816.5677       34.5708     1284.8824     1319.4532     502.885438       0.72939
  31     276.0      817.3856       37.6956     1280.5653     1318.2609     500.875272       0.71368
  30     299.8      818.1361       40.7955     1276.2839     1317.0794     498.943312       0.68562
  29     323.5      818.8080       43.8602     1272.1283     1315.9886     497.180572       0.62583
  28     347.3      819.4406       46.9273     1267.8782     1314.8055     495.364827       0.64465
  27     371.1      820.0605       49.9525     1263.0375     1312.9899     492.929405       0.86429
  26     394.9      820.6838       52.9526     1257.3469     1310.2994     489.615622       1.17601
  25     418.6      821.3096       55.9497     1251.3901     1307.3398     486.030238       1.27293
  24     442.4      821.9283       58.8885     1245.4620     1304.3505     482.422260       1.28095
  23     466.2      822.5643       61.8403     1239.3762     1301.2164     478.652114       1.33797
  22     489.9      823.2182       64.7495     1233.1568     1297.9063     474.688143       1.40675
  21     513.7      823.8942       67.6095     1226.8116     1294.4210     470.526855       1.47740
  20     537.5      824.6168       70.4916     1220.1629     1290.6545     466.037739       1.59312
  19     561.3      825.3783       73.3311     1213.3419     1286.6730     461.294673       1.68395
  18     585.0      826.1850       76.1196     1206.3658     1282.4854     456.300384       1.77314
  17     608.8      827.0619       78.9166     1199.1415     1278.0581     450.996200       1.88237
  16     632.6      827.9955       81.6923     1191.9457     1273.6380     445.642421       1.89997
  15     656.4      828.9889       84.4359     1184.8126     1269.2485     440.259656       1.91106
  14     680.1      830.0479       87.1409     1177.7612     1264.9021     434.854206       1.91912
  13     703.9      831.1859       89.8514     1170.7810     1260.6324     429.446536       1.91910
  12     727.7      832.3813       92.5279     1164.0452     1256.5731     424.191758       1.86484
  11     751.5      833.6464       95.1813     1157.4888     1252.6702     419.023706       1.83483
  10     775.2      834.9841       97.8022     1151.1183     1248.9205     413.936416       1.80540
   9     799.0      836.4157      100.4246     1144.8574     1245.2820     408.866244       1.80008
   8     822.8      837.9255      103.0169     1138.7985     1241.8154     403.889928       1.76602
   7     846.6      839.5276      105.5873     1132.9030     1238.4903     398.962653       1.74935
   6     870.4      841.2314      108.1314     1127.1604     1235.2918     394.060401       1.73973
   5     894.1      843.0488      110.6473     1121.5673     1232.2146     389.165756       1.73776
   4     917.9      844.9693      113.1630     1116.1582     1229.3212     384.351938       1.70907
   3     941.7      846.9764      115.6597     1110.9747     1226.6344     379.657978       1.66581
   2     965.5      849.0782      118.1407     1105.9959     1224.1366     375.058310       1.63235
   1     989.2      851.2979      120.6026     1101.1905     1221.7931     370.495134       1.61940
   0    1013.0      853.6550      123.0559     1096.5367     1219.5925     365.937558       1.61809



 Wavenumbers:  2600. -  3250. cm-1, ATM      1
 LEVEL PRESSURE   UPWARD FLUX   DIFDOWN FLUX  DIRDOWN FLUX  DOWNWARD FLUX   NET FLUX    HEATING RATE
          mb          W/m2          W/m2          W/m2        W/m2          W/m2       degree/day
  59    0.1000        2.7136        0.0000       11.9937       11.9937       9.280132       0.00000
  58    0.1400        2.7136        0.0000       11.9937       11.9937       9.280103       0.00613
  57    0.1970        2.7136        0.0000       11.9936       11.9936       9.280062       0.00614
  56    0.2760        2.7136        0.0000       11.9936       11.9936       9.280003       0.00633
  55    0.3870        2.7136        0.0000       11.9935       11.9935       9.279915       0.00668
  54    0.5430        2.7136        0.0000       11.9934       11.9934       9.279777       0.00746
  53    0.7620        2.7136        0.0000       11.9931       11.9931       9.279548       0.00882
  52     1.070        2.7136        0.0000       11.9927       11.9927       9.279163       0.01053
  51     1.500        2.7136        0.0000       11.9921       11.9921       9.278496       0.01309
  50     2.100        2.7136        0.0000       11.9910       11.9910       9.277379       0.01572
  49     2.950        2.7136        0.0000       11.9891       11.9891       9.275557       0.01808
  48     4.130        2.7136        0.0000       11.9863       11.9863       9.272745       0.02011
  47     5.800        2.7136        0.0000       11.9822       11.9822       9.268608       0.02091
  46     8.130        2.7136        0.0000       11.9764       11.9764       9.262798       0.02104
  45     11.41        2.7136        0.0000       11.9686       11.9686       9.255010       0.02004
  44     16.01        2.7136        0.0000       11.9587       11.9587       9.245125       0.01813
  43     22.46        2.7136        0.0000       11.9469       11.9469       9.233249       0.01554
  42     31.51        2.7137        0.0000       11.9326       11.9326       9.218903       0.01338
  41     44.20        2.7138        0.0000       11.9144       11.9144       9.200584       0.01218
  40     62.00        2.7140        0.0000       11.8882       11.8882       9.174217       0.01250
  39     85.77        2.7144        0.0000       11.8479       11.8480       9.133592       0.01442
  38     109.5        2.7149        0.0001       11.8004       11.8005       9.085537       0.01706
  37     133.3        2.7156        0.0001       11.7500       11.7501       9.034472       0.01812
  36     157.1        2.7164        0.0001       11.6981       11.6982       8.981830       0.01868
  35     180.9        2.7173        0.0001       11.6460       11.6461       8.928843       0.01881
  34     204.7        2.7183        0.0001       11.5944       11.5945       8.876237       0.01867
  33     228.4        2.7195        0.0001       11.5432       11.5433       8.823827       0.01861
  32     252.2        2.7209        0.0001       11.4924       11.4926       8.771626       0.01853
  31     276.0        2.7226        0.0001       11.4428       11.4430       8.720368       0.01820
  30     299.8        2.7245        0.0001       11.3949       11.3950       8.670557       0.01768
  29     323.5        2.7265        0.0002       11.3497       11.3498       8.623296       0.01678
  28     347.3        2.7289        0.0002       11.3050       11.3051       8.576233       0.01671
  27     371.1        2.7320        0.0002       11.2558       11.2560       8.523965       0.01855
  26     394.9        2.7361        0.0002       11.1996       11.1998       8.463700       0.02139
  25     418.6        2.7409        0.0002       11.1410       11.1412       8.400330       0.02250
  24     442.4        2.7463        0.0002       11.0819       11.0822       8.335873       0.02288
  23     466.2        2.7525        0.0002       11.0197       11.0199       8.267415       0.02429
  22     489.9        2.7596        0.0002       10.9543       10.9545       8.194892       0.02574
  21     513.7        2.7678        0.0002       10.8847       10.8849       8.117138       0.02761
  20     537.5        2.7773        0.0002       10.8081       10.8083       8.030979       0.03058
  19     561.3        2.7884        0.0002       10.7252       10.7254       7.937071       0.03334
  18     585.0        2.8010        0.0003       10.6351       10.6353       7.834280       0.03649
  17     608.8        2.8158        0.0003       10.5360       10.5362       7.720460       0.04039
  16     632.6        2.8323        0.0003       10.4314       10.4317       7.599383       0.04297
  15     656.4        2.8507        0.0003       10.3217       10.3220       7.471307       0.04547
  14     680.1        2.8711        0.0003       10.2071       10.2074       7.336249       0.04795
  13     703.9        2.8939        0.0003       10.0880       10.0883       7.194387       0.05034
  12     727.7        2.9185        0.0003        9.9686        9.9689       7.050396       0.05110
  11     751.5        2.9452        0.0003        9.8489        9.8492       6.903924       0.05200
  10     775.2        2.9741        0.0003        9.7297        9.7300       6.755866       0.05254
   9     799.0        3.0057        0.0003        9.6105        9.6108       6.605092       0.05353
   8     822.8        3.0397        0.0003        9.4940        9.4943       6.454607       0.05340
   7     846.6        3.0765        0.0003        9.3798        9.3802       6.303691       0.05358
   6     870.4        3.1163        0.0003        9.2682        9.2686       6.152209       0.05376
   5     894.1        3.1597        0.0003        9.1595        9.1598       6.000085       0.05401
   4     917.9        3.2064        0.0003        9.0552        9.0555       5.849106       0.05360
   3     941.7        3.2561        0.0003        8.9568        8.9571       5.701009       0.05256
   2     965.5        3.3092        0.0004        8.8639        8.8642       5.555050       0.05180
   1     989.2        3.3664        0.0004        8.7757        8.7760       5.409696       0.05158
   0    1013.0        3.4282        0.0004        8.6919        8.6923       5.264036       0.05171



 Wavenumbers:  3250. -  4000. cm-1, ATM      1
 LEVEL PRESSURE   UPWARD FLUX   DIFDOWN FLUX  DIRDOWN FLUX  DOWNWARD FLUX   NET FLUX    HEATING RATE
          mb          W/m2          W/m2          W/m2        W/m2          W/m2       degree/day
  59    0.1000        0.5846        0.0000       20.2197       20.2197      19.635047       0.00000
  58    0.1400        0.5846        0.0000       20.2044       20.2044      19.619817       3.21320
  57    0.1970        0.5846        0.0000       20.1937       20.1937      19.609111       1.58506
  56    0.2760        0.5846        0.0000       20.1841       20.1841      19.599496       1.02710
  55    0.3870        0.5846        0.0000       20.1739       20.1739      19.589333       0.77273
  54    0.5430        0.5846        0.0000       20.1632       20.1632      19.578589       0.58121
  53    0.7620        0.5846        0.0000       20.1518       20.1518      19.567177       0.43976
  52     1.070        0.5846        0.0000       20.1397       20.1397      19.555048       0.33233
  51     1.500        0.5846        0.0000       20.1251       20.1251      19.540526       0.28500
  50     2.100        0.5846        0.0000       20.1072       20.1072      19.522628       0.25174
  49     2.950        0.5846        0.0000       20.0845       20.0845      19.499933       0.22533
  48     4.130        0.5846        0.0000       20.0557       20.0557      19.471057       0.20651
  47     5.800        0.5846        0.0000       20.0186       20.0186      19.433977       0.18738
  46     8.130        0.5846        0.0000       19.9695       19.9695      19.384932       0.17764
  45     11.41        0.5846        0.0000       19.9014       19.9014      19.316858       0.17515
  44     16.01        0.5846        0.0000       19.8019       19.8019      19.217291       0.18267
  43     22.46        0.5846        0.0000       19.6535       19.6535      19.068951       0.19409
  42     31.51        0.5846        0.0000       19.4354       19.4354      18.850872       0.20336
  41     44.20        0.5846        0.0001       19.1347       19.1348      18.550219       0.19994
  40     62.00        0.5845        0.0001       18.7612       18.7613      18.176794       0.17704
  39     85.77        0.5845        0.0001       18.3477       18.3478      17.763259       0.14682
  38     109.5        0.5845        0.0001       17.9632       17.9633      17.378818       0.13649
  37     133.3        0.5845        0.0002       17.6005       17.6007      17.016190       0.12869
  36     157.1        0.5845        0.0002       17.2513       17.2515      16.666976       0.12393
  35     180.9        0.5845        0.0002       16.9036       16.9039      16.319381       0.12341
  34     204.7        0.5845        0.0002       16.5410       16.5413      15.956773       0.12868
  33     228.4        0.5845        0.0003       16.1412       16.1415      15.556975       0.14194
  32     252.2        0.5846        0.0003       15.6954       15.6957      15.111107       0.15823
  31     276.0        0.5847        0.0003       15.2546       15.2549      14.670198       0.15654
  30     299.8        0.5849        0.0003       14.8282       14.8286      14.243643       0.15138
  29     323.5        0.5851        0.0003       14.4370       14.4374      13.852243       0.13896
  28     347.3        0.5854        0.0004       14.0406       14.0410      13.455626       0.14081
  27     371.1        0.5859        0.0004       13.5432       13.5436      12.957703       0.17671
  26     394.9        0.5868        0.0004       12.9292       12.9296      12.342704       0.21825
  25     418.6        0.5882        0.0004       12.3153       12.3156      11.727457       0.21843
  24     442.4        0.5898        0.0004       11.7330       11.7334      11.143561       0.20730
  23     466.2        0.5919        0.0004       11.1535       11.1538      10.561911       0.20642
  22     489.9        0.5947        0.0004       10.5687       10.5691       9.974394       0.20850
  21     513.7        0.5982        0.0004        9.9833        9.9837       9.385526       0.20907
  20     537.5        0.6027        0.0003        9.3938        9.3941       8.791426       0.21084
  19     561.3        0.6085        0.0003        8.8191        8.8195       8.210963       0.20608
  18     585.0        0.6158        0.0003        8.2685        8.2688       7.653033       0.19808
  17     608.8        0.6250        0.0003        7.7400        7.7404       7.115359       0.19081
  16     632.6        0.6360        0.0003        7.2613        7.2616       6.625563       0.17382
  15     656.4        0.6491        0.0003        6.8268        6.8271       6.177948       0.15892
  14     680.1        0.6646        0.0003        6.4282        6.4285       5.763848       0.14702
  13     703.9        0.6828        0.0003        6.0622        6.0625       5.379695       0.13633
  12     727.7        0.7034        0.0003        5.7336        5.7338       5.030480       0.12393
  11     751.5        0.7268        0.0003        5.4331        5.4334       4.706591       0.11499
  10     775.2        0.7535        0.0003        5.1570        5.1573       4.403727       0.10748
   9     799.0        0.7843        0.0003        4.8998        4.9001       4.115842       0.10221
   8     822.8        0.8190        0.0003        4.6636        4.6638       3.844863       0.09617
   7     846.6        0.8583        0.0003        4.4446        4.4449       3.586518       0.09172
   6     870.4        0.9033        0.0002        4.2408        4.2410       3.337714       0.08830
   5     894.1        0.9547        0.0002        4.0505        4.0507       3.096010       0.08581
   4     917.9        1.0122        0.0002        3.8764        3.8766       2.864435       0.08222
   3     941.7        1.0755        0.0002        3.7183        3.7185       2.643033       0.07857
   2     965.5        1.1452        0.0002        3.5747        3.5749       2.429709       0.07571
   1     989.2        1.2228        0.0002        3.4425        3.4428       2.219980       0.07443
   0    1013.0        1.3098        0.0002        3.3208        3.3210       2.011201       0.07412



 Wavenumbers:  4000. -  4650. cm-1, ATM      1
 LEVEL PRESSURE   UPWARD FLUX   DIFDOWN FLUX  DIRDOWN FLUX  DOWNWARD FLUX   NET FLUX    HEATING RATE
          mb          W/m2          W/m2          W/m2        W/m2          W/m2       degree/day
  59    0.1000        7.4059        0.0000       23.7440       23.7440      16.338130       0.00000
  58    0.1400        7.4059        0.0000       23.7440       23.7440      16.338126       0.00079
  57    0.1970        7.4059        0.0000       23.7440       23.7440      16.338121       0.00079
  56    0.2760        7.4059        0.0000       23.7440       23.7440      16.338113       0.00082
  55    0.3870        7.4059        0.0000       23.7440       23.7440      16.338102       0.00086
  54    0.5430        7.4059        0.0000       23.7439       23.7439      16.338084       0.00097
  53    0.7620        7.4059        0.0000       23.7439       23.7439      16.338055       0.00115
  52     1.070        7.4059        0.0000       23.7439       23.7439      16.338004       0.00137
  51     1.500        7.4059        0.0000       23.7438       23.7438      16.337917       0.00172
  50     2.100        7.4059        0.0000       23.7436       23.7436      16.337768       0.00209
