

 Wavenumbers:   820. - 50000. cm-1, ATM      1
 LEVEL PRESSURE   UPWARD FLUX   DIFDOWN FLUX  DIRDOWN FLUX  DOWNWARD FLUX   NET FLUX    HEATING RATE
          mb          W/m2          W/m2          W/m2        W/m2          W/m2       degree/day
  59    0.1000      587.4065        0.0000     1360.8491     1360.8491     773.442675       0.00000
  58    0.1400      587.4061        0.0053     1360.7700     1360.7753     773.369200      15.50183
  57    0.1970      587.4060        0.0129     1360.6656     1360.6784     773.272434      14.32667
  56    0.2760      587.4065        0.0233     1360.4973     1360.5206     773.114057      16.91855
  55    0.3870      587.4086        0.0378     1360.2162     1360.2540     772.845341      20.43005
  54    0.5430      587.4139        0.0579     1359.7485     1359.8064     772.392516      24.49648
  53    0.7620      587.4248        0.0860     1359.0015     1359.0875     771.662707      28.12314
  52     1.070      587.4456        0.1235     1357.8888     1358.0122     770.566633      30.03222
  51     1.500      587.4882        0.1753     1356.1988     1356.3741     768.885830      32.98732
  50     2.100      587.5630        0.2460     1354.0972     1354.3432     766.780219      29.61593
  49     2.950      587.6830        0.3445     1351.8433     1352.1878     764.504798      22.59130
  48     4.130      587.8594        0.4818     1349.6358     1350.1175     762.258104      16.06794
  47     5.800      588.1042        0.6730     1347.4520     1348.1250     760.020836      11.30577
  46     8.130      588.4325        0.9398     1345.1751     1346.1149     757.682367       8.46982
  45     11.41      588.8605        1.3118     1342.7079     1344.0197     755.159199       6.49189
  44     16.01      589.4129        1.8292     1339.9281     1341.7573     752.344391       5.16404
  43     22.46      590.1539        2.5476     1336.6282     1339.1758     749.021953       4.34706
  42     31.51      591.1656        3.5431     1332.6189     1336.1620     744.996388       3.75385
  41     44.20      592.4759        4.9248     1327.8040     1332.7288     740.252910       3.15452
  40     62.00      594.0119        6.8422     1322.1310     1328.9732     734.961312       2.50880
  39     85.77      595.2759        9.3878     1316.0883     1325.4761     730.200218       1.69035
  38     109.5      596.0542       11.9194     1310.8699     1322.7893     726.735133       1.23022
  37     133.3      596.5295       14.4184     1306.1391     1320.5575     724.028029       0.96071
  36     157.1      596.7822       16.9058     1301.7285     1318.6343     721.852058       0.77222
  35     180.9      596.8524       19.3729     1297.5383     1316.9113     720.058849       0.63665
  34     204.7      596.8524       21.8049     1293.4065     1315.2114     718.358996       0.60325
  33     228.4      596.8261       24.2174     1289.2005     1313.4179     716.591868       0.62739
  32     252.2      596.7747       26.6013     1284.8824     1311.4836     714.708915       0.66823
  31     276.0      596.6840       28.9623     1280.5653     1309.5275     712.843561       0.66226
  30     299.8      596.5537       31.2978     1276.2839     1307.5817     711.028033       0.64430
  29     323.5      596.3791       33.6003     1272.1283     1305.7286     709.349572       0.59591
  28     347.3      596.1773       35.8980     1267.8782     1303.7762     707.598948       0.62153
  27     371.1      595.9767       38.1577     1263.0375     1301.1951     705.218390       0.84482
  26     394.9      595.7886       40.3919     1257.3469     1297.7388     701.950128       1.15985
  25     418.6      595.6055       42.6172     1251.3901     1294.0074     698.401835       1.25976
  24     442.4      595.4318       44.7928     1245.4620     1290.2548     694.823092       1.27057
  23     466.2      595.2709       46.9714     1239.3762     1286.3475     691.076683       1.32954
  22     489.9      595.1366       49.1120     1233.1568     1282.2688     687.132141       1.39986
  21     513.7      595.0360       51.2098     1226.8116     1278.0213     682.985325       1.47226
  20     537.5      594.9751       53.3172     1220.1629     1273.4801     678.504986       1.59000
  19     561.3      594.9651       55.3868     1213.3419     1268.7287     673.763567       1.68336
  18     585.0      595.0160       57.4128     1206.3658     1263.7785     668.762460       1.77556
  17     608.8      595.1381       59.4383     1199.1415     1258.5798     663.441639       1.88828
  16     632.6      595.3253       61.4418     1191.9457     1253.3875     658.062158       1.90909
  15     656.4      595.5848       63.4156     1184.8126     1248.2283     652.643497       1.92381
  14     680.1      595.9260       65.3553     1177.7612     1243.1165     647.190504       1.93600
  13     703.9      596.3502       67.2924     1170.7810     1238.0735     641.723267       1.94024
  12     727.7      596.8458       69.1989     1164.0452     1233.2442     636.398390       1.88971
  11     751.5      597.4236       71.0827     1157.4888     1228.5716     631.147969       1.86408
  10     775.2      598.0906       72.9371     1151.1183     1224.0554     625.964819       1.83942
   9     799.0      598.8606       74.7863     1144.8574     1219.6437     620.783049       1.83970
   8     822.8      599.7263       76.6080     1138.7985     1215.4065     615.680193       1.81092
   7     846.6      600.7023       78.4081     1132.9030     1211.3111     610.608848       1.80050
   6     870.4      601.8018       80.1838     1127.1604     1207.3442     605.542343       1.79802
   5     894.1      603.0406       81.9335     1121.5673     1203.5009     600.460277       1.80430
   4     917.9      604.3964       83.6773     1116.1582     1199.8355     595.439076       1.78269
   3     941.7      605.8572       85.4019     1110.9747     1196.3766     590.519384       1.74592
   2     965.5      607.4317       87.1097     1105.9959     1193.1056     585.673887       1.71959
   1     989.2      609.1497       88.7986     1101.1905     1189.9890     580.839318       1.71571
   0    1013.0      611.0312       90.4756     1096.5367     1187.0122     575.981026       1.72486



 Wavenumbers:  2600. -  3250. cm-1, ATM      1
 LEVEL PRESSURE   UPWARD FLUX   DIFDOWN FLUX  DIRDOWN FLUX  DOWNWARD FLUX   NET FLUX    HEATING RATE
          mb          W/m2          W/m2          W/m2        W/m2          W/m2       degree/day
  59    0.1000        3.4559        0.0000       11.9937       11.9937       8.537819       0.00000
  58    0.1400        3.4559        0.0000       11.9937       11.9937       8.537790       0.00613
  57    0.1970        3.4559        0.0000       11.9936       11.9936       8.537749       0.00614
  56    0.2760        3.4559        0.0000       11.9936       11.9936       8.537689       0.00633
  55    0.3870        3.4559        0.0000       11.9935       11.9935       8.537601       0.00668
  54    0.5430        3.4559        0.0000       11.9934       11.9934       8.537463       0.00746
  53    0.7620        3.4559        0.0000       11.9931       11.9931       8.537234       0.00883
  52     1.070        3.4559        0.0000       11.9927       11.9927       8.536850       0.01054
  51     1.500        3.4559        0.0000       11.9921       11.9921       8.536183       0.01309
  50     2.100        3.4559        0.0000       11.9910       11.9910       8.535065       0.01572
  49     2.950        3.4559        0.0000       11.9891       11.9891       8.533244       0.01808
  48     4.130        3.4559        0.0000       11.9863       11.9863       8.530431       0.02011
  47     5.800        3.4559        0.0000       11.9822       11.9822       8.526293       0.02091
  46     8.130        3.4559        0.0000       11.9764       11.9764       8.520482       0.02105
  45     11.41        3.4559        0.0000       11.9686       11.9686       8.512692       0.02004
  44     16.01        3.4559        0.0000       11.9587       11.9587       8.502804       0.01814
  43     22.46        3.4560        0.0000       11.9469       11.9469       8.490921       0.01555
  42     31.51        3.4560        0.0000       11.9326       11.9326       8.476560       0.01339
  41     44.20        3.4562        0.0000       11.9144       11.9144       8.458213       0.01220
  40     62.00        3.4564        0.0000       11.8882       11.8882       8.431787       0.01253
  39     85.77        3.4569        0.0000       11.8479       11.8480       8.391050       0.01446
  38     109.5        3.4576        0.0001       11.8004       11.8005       8.342847       0.01711
  37     133.3        3.4585        0.0001       11.7500       11.7501       8.291599       0.01819
  36     157.1        3.4595        0.0001       11.6981       11.6982       8.238744       0.01876
  35     180.9        3.4606        0.0001       11.6460       11.6461       8.185511       0.01890
  34     204.7        3.4619        0.0001       11.5944       11.5945       8.132623       0.01877
  33     228.4        3.4635        0.0001       11.5432       11.5433       8.079882       0.01873
  32     252.2        3.4653        0.0001       11.4924       11.4926       8.027285       0.01867
  31     276.0        3.4674        0.0001       11.4428       11.4430       7.975571       0.01836
  30     299.8        3.4698        0.0002       11.3949       11.3951       7.925242       0.01786
  29     323.5        3.4724        0.0002       11.3497       11.3498       7.877423       0.01698
  28     347.3        3.4754        0.0002       11.3050       11.3051       7.829714       0.01694
  27     371.1        3.4794        0.0002       11.2558       11.2560       7.776586       0.01885
  26     394.9        3.4846        0.0002       11.1996       11.1998       7.715198       0.02179
  25     418.6        3.4907        0.0002       11.1410       11.1413       7.650517       0.02296
  24     442.4        3.4976        0.0002       11.0819       11.0822       7.584589       0.02341
  23     466.2        3.5055        0.0002       11.0197       11.0199       7.514428       0.02490
  22     489.9        3.5146        0.0002       10.9543       10.9545       7.439960       0.02643
  21     513.7        3.5249        0.0002       10.8847       10.8849       7.359974       0.02840
  20     537.5        3.5371        0.0003       10.8081       10.8083       7.271193       0.03151
  19     561.3        3.5512        0.0003       10.7252       10.7254       7.174268       0.03441
  18     585.0        3.5673        0.0003       10.6351       10.6353       7.068009       0.03773
  17     608.8        3.5861        0.0003       10.5360       10.5363       6.950155       0.04182
  16     632.6        3.6071        0.0003       10.4314       10.4317       6.824562       0.04457
  15     656.4        3.6305        0.0003       10.3217       10.3220       6.691454       0.04726
  14     680.1        3.6566        0.0003       10.2071       10.2074       6.550796       0.04994
  13     703.9        3.6856        0.0003       10.0880       10.0883       6.402702       0.05256
  12     727.7        3.7170        0.0003        9.9686        9.9689       6.251977       0.05349
  11     751.5        3.7510        0.0003        9.8489        9.8492       6.098195       0.05460
  10     775.2        3.7878        0.0003        9.7297        9.7300       5.942229       0.05535
   9     799.0        3.8280        0.0003        9.6105        9.6109       5.782809       0.05660
   8     822.8        3.8713        0.0003        9.4940        9.4943       5.623028       0.05670
   7     846.6        3.9181        0.0004        9.3798        9.3802       5.462052       0.05715
   6     870.4        3.9689        0.0004        9.2682        9.2686       5.299662       0.05763
   5     894.1        4.0242        0.0004        9.1595        9.1599       5.135666       0.05822
   4     917.9        4.0836        0.0004        9.0552        9.0556       4.971912       0.05814
   3     941.7        4.1470        0.0004        8.9568        8.9572       4.810214       0.05738
   2     965.5        4.2145        0.0004        8.8639        8.8643       4.649737       0.05695
   1     989.2        4.2873        0.0004        8.7757        8.7761       4.488746       0.05713
   0    1013.0        4.3661        0.0004        8.6919        8.6923       4.326156       0.05772



 Wavenumbers:  3250. -  4000. cm-1, ATM      1
 LEVEL PRESSURE   UPWARD FLUX   DIFDOWN FLUX  DIRDOWN FLUX  DOWNWARD FLUX   NET FLUX    HEATING RATE
          mb          W/m2          W/m2          W/m2        W/m2          W/m2       degree/day
  59    0.1000        0.7444        0.0000       20.2197       20.2197      19.475282       0.00000
  58    0.1400        0.7444        0.0000       20.2044       20.2044      19.460052       3.21320
  57    0.1970        0.7444        0.0000       20.1937       20.1937      19.449347       1.58506
  56    0.2760        0.7444        0.0000       20.1841       20.1841      19.439732       1.02710
  55    0.3870        0.7444        0.0000       20.1739       20.1739      19.429568       0.77273
  54    0.5430        0.7444        0.0000       20.1632       20.1632      19.418824       0.58121
  53    0.7620        0.7444        0.0000       20.1518       20.1518      19.407412       0.43976
  52     1.070        0.7444        0.0000       20.1397       20.1397      19.395283       0.33233
  51     1.500        0.7444        0.0000       20.1251       20.1251      19.380762       0.28500
  50     2.100        0.7444        0.0000       20.1072       20.1072      19.362863       0.25174
  49     2.950        0.7444        0.0000       20.0845       20.0845      19.340168       0.22533
  48     4.130        0.7444        0.0000       20.0557       20.0557      19.311293       0.20651
  47     5.800        0.7444        0.0000       20.0186       20.0186      19.274212       0.18738
  46     8.130        0.7444        0.0000       19.9695       19.9695      19.225168       0.17764
  45     11.41        0.7444        0.0000       19.9014       19.9015      19.157093       0.17515
  44     16.01        0.7444        0.0000       19.8019       19.8019      19.057526       0.18267
  43     22.46        0.7443        0.0000       19.6535       19.6535      18.909186       0.19409
  42     31.51        0.7443        0.0000       19.4354       19.4354      18.691107       0.20336
  41     44.20        0.7443        0.0001       19.1347       19.1348      18.390453       0.19994
  40     62.00        0.7443        0.0001       18.7612       18.7613      18.017027       0.17704
  39     85.77        0.7443        0.0001       18.3477       18.3478      17.603490       0.14682
  38     109.5        0.7443        0.0001       17.9632       17.9633      17.219046       0.13649
  37     133.3        0.7443        0.0002       17.6005       17.6007      16.856414       0.12869
  36     157.1        0.7443        0.0002       17.2513       17.2515      16.507195       0.12393
  35     180.9        0.7443        0.0002       16.9036       16.9039      16.159594       0.12341
  34     204.7        0.7443        0.0003       16.5410       16.5413      15.796976       0.12869
  33     228.4        0.7444        0.0003       16.1412       16.1415      15.397159       0.14195
  32     252.2        0.7445        0.0003       15.6954       15.6957      14.951262       0.15824
  31     276.0        0.7446        0.0003       15.2546       15.2550      14.510312       0.15655
  30     299.8        0.7449        0.0003       14.8282       14.8286      14.083706       0.15140
  29     323.5        0.7451        0.0003       14.4370       14.4374      13.692247       0.13898
  28     347.3        0.7455        0.0004       14.0406       14.0410      13.295552       0.14084
  27     371.1        0.7461        0.0004       13.5432       13.5436      12.797482       0.17676
  26     394.9        0.7473        0.0004       12.9292       12.9296      12.182217       0.21835
  25     418.6        0.7490        0.0004       12.3153       12.3156      11.566607       0.21856
  24     442.4        0.7511        0.0004       11.7330       11.7334      10.982257       0.20746
  23     466.2        0.7538        0.0004       11.1535       11.1538      10.400022       0.20663
  22     489.9        0.7573        0.0004       10.5687       10.5691       9.811754       0.20877
  21     513.7        0.7618        0.0004        9.9833        9.9837       9.221927       0.20941
  20     537.5        0.7676        0.0004        9.3938        9.3941       8.626578       0.21128
  19     561.3        0.7749        0.0003        8.8191        8.8195       8.044530       0.20665
  18     585.0        0.7842        0.0003        8.2685        8.2688       7.484605       0.19879
  17     608.8        0.7960        0.0003        7.7400        7.7404       6.944404       0.19171
  16     632.6        0.8100        0.0003        7.2613        7.2616       6.451587       0.17489
  15     656.4        0.8267        0.0003        6.8268        6.8271       6.000387       0.16019
  14     680.1        0.8464        0.0003        6.4282        6.4285       5.582046       0.14853
  13     703.9        0.8696        0.0003        6.0622        6.0625       5.192924       0.13809
  12     727.7        0.8958        0.0003        5.7336        5.7339       4.838078       0.12593
  11     751.5        0.9257        0.0003        5.4331        5.4334       4.507770       0.11727
  10     775.2        0.9597        0.0003        5.1570        5.1573       4.197597       0.11008
   9     799.0        0.9988        0.0003        4.8998        4.9001       3.901305       0.10519
   8     822.8        1.0430        0.0003        4.6636        4.6638       3.620832       0.09954
   7     846.6        1.0932        0.0003        4.4446        4.4449       3.351708       0.09555
   6     870.4        1.1504        0.0003        4.2408        4.2410       3.090604       0.09266
   5     894.1        1.2159        0.0003        4.0505        4.0507       2.834833       0.09081
   4     917.9        1.2891        0.0002        3.8764        3.8766       2.587537       0.08780
   3     941.7        1.3697        0.0002        3.7183        3.7185       2.348808       0.08472
   2     965.5        1.4585        0.0002        3.5747        3.5749       2.116418       0.08247
   1     989.2        1.5573        0.0002        3.4425        3.4428       1.885457       0.08196
   0    1013.0        1.6681        0.0002        3.3208        3.3210       1.652871       0.08258



 Wavenumbers:  4000. -  4650. cm-1, ATM      1
 LEVEL PRESSURE   UPWARD FLUX   DIFDOWN FLUX  DIRDOWN FLUX  DOWNWARD FLUX   NET FLUX    HEATING RATE
          mb          W/m2          W/m2          W/m2        W/m2          W/m2       degree/day
  59    0.1000        9.4313        0.0000       23.7440       23.7440      14.312724       0.00000
  58    0.1400        9.4313        0.0000       23.7440       23.7440      14.312720       0.00079
  57    0.1970        9.4313        0.0000       23.7440       23.7440      14.312715       0.00080
  56    0.2760        9.4313        0.0000       23.7440       23.7440      14.312707       0.00082
  55    0.3870        9.4313        0.0000       23.7440       23.7440      14.312696       0.00087
  54    0.5430        9.4313        0.0000       23.7439       23.7439      14.312678       0.00097
  53    0.7620        9.4313        0.0000       23.7439       23.7439      14.312648       0.00115
  52     1.070        9.4313        0.0000       23.7439       23.7439      14.312598       0.00138
  51     1.500        9.4313        0.0000       23.7438       23.7438      14.312510       0.00173
  50     2.100        9.4313        0.0000       23.7436       23.7436      14.312361       0.00210
