

 Wavenumbers:   820. - 50000. cm-1, ATM      1
 LEVEL PRESSURE   UPWARD FLUX   DIFDOWN FLUX  DIRDOWN FLUX  DOWNWARD FLUX   NET FLUX    HEATING RATE
          mb          W/m2          W/m2          W/m2        W/m2          W/m2       degree/day
  60   .000300      268.3405        0.0000      837.8224      837.8224     569.481892       0.00000
  59    0.1000      268.3355        0.0110      837.7137      837.7247     569.389198       7.84611
  58    0.1403      268.3337        0.0154      837.6563      837.6717     569.338049      10.71108
  57    0.1968      268.3314        0.0216      837.5614      837.5830     569.251607      12.91139
  56    0.2760      268.3286        0.0302      837.4070      837.4373     569.108704      15.22702
  55    0.3871      268.3250        0.0422      837.1641      837.2063     568.881280      17.27508
  54    0.5430      268.3209        0.0588      836.7876      836.8464     568.525534      19.25719
  53    0.7617      268.3169        0.0815      836.1942      836.2757     567.958820      21.86823
  52     1.069      268.3143        0.1126      835.2926      835.4052     567.090938      23.87282
  51     1.499      268.3164        0.1544      834.0471      834.2015     565.885095      23.64927
  50     2.102      268.3303        0.2107      832.4995      832.7102     564.379974      21.04364
  49     2.949      268.3692        0.2893      830.7483      831.0376     562.668345      17.06200
  48     4.137      268.4497        0.3985      828.8944      829.2929     560.843140      12.97000
  47     5.803      268.5812        0.5499      826.9459      827.4958     558.914618       9.76954
  46     8.139      268.7608        0.7605      824.8978      825.6583     556.897566       7.28472
  45     11.42      268.9769        1.0535      822.7006      823.7540     554.777115       5.45939
  44     16.01      269.2232        1.4601      820.2525      821.7126     552.489357       4.19921
  43     22.46      269.4921        2.0256      817.4463      819.4719     549.979711       3.28396
  42     31.51      269.7334        2.8116      814.2518      817.0634     547.330020       2.47180
  41     44.20      269.8463        3.9064      810.6480      814.5544     544.708140       1.74365
  40     62.00      269.7624        5.4166      806.4553      811.8720     542.109579       1.23202
  39     85.78      269.3386        7.4078      801.7674      809.1752     539.836568       0.80683
  38     109.5      268.7423        9.4022      797.4817      806.8839     538.141599       0.60164
  37     133.1      268.1234       11.2885      793.5510      804.8395     536.716036       0.51194
  36     156.8      267.4978       13.0928      789.8548      802.9476     535.449766       0.44902
  35     180.6      266.8002       14.9800      786.0084      800.9884     534.188156       0.44789
  34     202.8      266.0966       16.7689      782.2124      798.9812     532.884656       0.49491
  33     228.4      265.3640       18.5640      778.0467      796.6107     531.246728       0.54041
  32     252.2      264.6219       20.3345      773.4741      793.8086     529.186693       0.73123
  31     276.0      263.8816       22.0560      768.4389      790.4949     526.613344       0.91343
  30     299.8      263.1324       23.7631      762.7642      786.5273     523.394908       1.14241
  29     323.5      262.3844       25.4455      756.6288      782.0742     519.689873       1.31513
  28     347.3      261.6483       27.0856      750.2254      777.3110     515.662698       1.42948
  27     371.1      260.9277       28.6788      743.7251      772.4039     511.476136       1.48606
  26     394.9      260.2059       30.2679      736.8957      767.1637     506.957772       1.60383
  25     418.6      259.4975       31.8271      729.8721      761.6992     502.201622       1.68824
  24     442.4      258.8046       33.3592      722.6783      756.0374     497.232838       1.76371
  23     466.2      258.1261       34.8698      715.4381      750.3079     492.181743       1.79293
  22     489.9      257.4751       36.3389      708.2772      744.6161     487.140983       1.78926
  21     513.7      256.8452       37.7922      701.0441      738.8363     481.991076       1.82800
  20     537.5      256.2519       39.2080      693.8325      733.0405     476.788582       1.84667
  19     561.3      255.6998       40.5895      686.6319      727.2214     471.521584       1.86957
  18     585.0      255.1806       41.9669      679.3701      721.3370     466.156349       1.90444
  17     608.8      254.7109       43.3080      672.2525      715.5605     460.849545       1.88370
  16     632.6      254.2975       44.6141      665.2624      709.8765     455.578977       1.87083
  15     656.4      253.9470       45.9122      658.1915      704.1037     450.156689       1.92469
  14     680.1      253.6876       47.1763      651.1209      698.2972     444.609600       1.96899
  13     703.9      253.5380       48.4071      644.0582      692.4653     438.927315       2.01698
  12     727.7      253.5264       49.6235      636.8758      686.4993     432.972922       2.11356
  11     751.5      253.7088       50.8245      629.4911      680.3156     426.606783       2.25972
  10     775.2      254.1476       51.9953      621.9804      673.9756     419.827999       2.40619
   9     799.0      254.9339       53.1360      614.3441      667.4801     412.546174       2.58475
   8     822.8      196.3494      145.1429      456.5086      601.6514     405.302065       2.57136
   7     846.6      139.7247      199.5467      339.3400      538.8867     399.162025       2.17946
   6     870.4       84.5235      226.3022      252.3345      478.6367     394.113277       1.79210
   5     894.1       30.2961      232.7227      187.6922      420.4148     390.118720       1.41790
   4     917.9       29.6576      230.8059      185.5360      416.3419     386.684265       1.21909
   3     941.7       29.0294      228.9421      183.4215      412.3636     383.334153       1.18915
   2     965.5       28.4187      227.1353      181.3601      408.4954     380.076640       1.15628
   1     989.2       27.8284      225.3800      179.3501      404.7301     376.901673       1.12675
   0    1013.0       27.2625      223.6709      177.3871      401.0580     373.795447       1.10281



 Wavenumbers:  2600. -  3250. cm-1, ATM      1
 LEVEL PRESSURE   UPWARD FLUX   DIFDOWN FLUX  DIRDOWN FLUX  DOWNWARD FLUX   NET FLUX    HEATING RATE
          mb          W/m2          W/m2          W/m2        W/m2          W/m2       degree/day
  60   .000300        1.0911        0.0000        7.3841        7.3841       6.292990       0.00000
  59    0.1000        1.0911        0.0000        7.3840        7.3840       6.292918       0.00613
  58    0.1403        1.0911        0.0000        7.3840        7.3840       6.292888       0.00614
  57    0.1968        1.0911        0.0000        7.3839        7.3839       6.292847       0.00616
  56    0.2760        1.0911        0.0000        7.3839        7.3839       6.292790       0.00613
  55    0.3871        1.0911        0.0000        7.3838        7.3838       6.292705       0.00641
  54    0.5430        1.0911        0.0000        7.3837        7.3837       6.292580       0.00678
  53    0.7617        1.0911        0.0000        7.3835        7.3835       6.292383       0.00761
  52     1.069        1.0911        0.0000        7.3831        7.3831       6.292052       0.00908
  51     1.499        1.0911        0.0000        7.3825        7.3825       6.291444       0.01193
  50     2.102        1.0911        0.0000        7.3814        7.3814       6.290355       0.01522
  49     2.949        1.0911        0.0000        7.3795        7.3795       6.288470       0.01880
  48     4.137        1.0911        0.0000        7.3765        7.3765       6.285456       0.02142
  47     5.803        1.0911        0.0000        7.3721        7.3721       6.281025       0.02245
  46     8.139        1.0911        0.0000        7.3661        7.3661       6.275017       0.02170
  45     11.42        1.0911        0.0000        7.3586        7.3586       6.267510       0.01933
  44     16.01        1.0911        0.0000        7.3500        7.3500       6.258934       0.01574
  43     22.46        1.0911        0.0000        7.3407        7.3407       6.249616       0.01219
  42     31.51        1.0911        0.0000        7.3297        7.3297       6.238648       0.01023
  41     44.20        1.0911        0.0000        7.3134        7.3134       6.222289       0.01088
  40     62.00        1.0912        0.0000        7.2860        7.2860       6.194865       0.01300
  39     85.78        1.0912        0.0000        7.2438        7.2439       6.152638       0.01499
  38     109.5        1.0914        0.0000        7.1969        7.1970       6.105595       0.01670
  37     133.1        1.0915        0.0001        7.1517        7.1518       6.060305       0.01626
  36     156.8        1.0917        0.0001        7.1092        7.1093       6.017646       0.01513
  35     180.6        1.0919        0.0001        7.0662        7.0663       5.974423       0.01535
  34     202.8        1.0921        0.0001        7.0262        7.0262       5.934145       0.01529
  33     228.4        1.0925        0.0001        6.9846        6.9847       5.892259       0.01382
  32     252.2        1.0930        0.0001        6.9407        6.9408       5.847801       0.01578
  31     276.0        1.0937        0.0001        6.8941        6.8942       5.800584       0.01676
  30     299.8        1.0945        0.0001        6.8424        6.8426       5.748018       0.01866
  29     323.5        1.0957        0.0001        6.7849        6.7851       5.689357       0.02082
  28     347.3        1.0971        0.0001        6.7206        6.7207       5.623601       0.02334
  27     371.1        1.0989        0.0001        6.6496        6.6497       5.550813       0.02584
  26     394.9        1.1011        0.0001        6.5676        6.5677       5.466657       0.02987
  25     418.6        1.1037        0.0002        6.4741        6.4743       5.370590       0.03410
  24     442.4        1.1068        0.0002        6.3671        6.3673       5.260463       0.03909
  23     466.2        1.1106        0.0002        6.2486        6.2487       5.138169       0.04341
  22     489.9        1.1149        0.0002        6.1205        6.1206       5.005760       0.04700
  21     513.7        1.1201        0.0002        5.9812        5.9814       4.861298       0.05128
  20     537.5        1.1262        0.0002        5.8338        5.8340       4.707811       0.05448
  19     561.3        1.1334        0.0002        5.6819        5.6821       4.548676       0.05649
  18     585.0        1.1418        0.0002        5.5274        5.5276       4.385788       0.05782
  17     608.8        1.1515        0.0002        5.3761        5.3763       4.224764       0.05716
  16     632.6        1.1626        0.0002        5.2281        5.2283       4.065713       0.05646
  15     656.4        1.1757        0.0002        5.0791        5.0793       3.903547       0.05756
  14     680.1        1.1913        0.0002        4.9299        4.9301       3.738737       0.05850
  13     703.9        1.2099        0.0002        4.7798        4.7800       3.570047       0.05988
  12     727.7        1.2327        0.0002        4.6253        4.6255       3.392757       0.06293
  11     751.5        1.2614        0.0002        4.4633        4.4635       3.202066       0.06769
  10     775.2        1.2977        0.0002        4.2949        4.2951       2.997380       0.07265
   9     799.0        1.3444        0.0002        4.1205        4.1207       2.776358       0.07845
   8     822.8        1.0053        0.5944        2.9669        3.5613       2.556018       0.07821
   7     846.6        0.6908        0.9240        2.1368        3.0607       2.369944       0.06605
   6     870.4        0.3934        1.0718        1.5400        2.6119       2.218461       0.05377
   5     894.1        0.1059        1.0949        1.1110        2.2059       2.099964       0.04206
   4     917.9        0.1089        1.0439        1.0651        2.1090       2.000063       0.03546
   3     941.7        0.1123        0.9958        1.0211        2.0169       1.904587       0.03389
   2     965.5        0.1163        0.9505        0.9791        1.9296       1.813301       0.03240
   1     989.2        0.1210        0.9076        0.9392        1.8468       1.725837       0.03104
   0    1013.0        0.1265        0.8669        0.9010        1.7679       1.641341       0.03000



 Wavenumbers:  3250. -  4000. cm-1, ATM      1
 LEVEL PRESSURE   UPWARD FLUX   DIFDOWN FLUX  DIRDOWN FLUX  DOWNWARD FLUX   NET FLUX    HEATING RATE
          mb          W/m2          W/m2          W/m2        W/m2          W/m2       degree/day
  60   .000300        0.0115        0.0000       12.4485       12.4485      12.436926       0.00000
  59    0.1000        0.0115        0.0000       12.4290       12.4290      12.417424       1.65079
  58    0.1403        0.0115        0.0000       12.4252       12.4252      12.413710       0.77776
  57    0.1968        0.0115        0.0000       12.4208       12.4208      12.409237       0.66803
  56    0.2760        0.0115        0.0000       12.4156       12.4156      12.404074       0.55013
  55    0.3871        0.0115        0.0000       12.4096       12.4096      12.398041       0.45825
  54    0.5430        0.0115        0.0000       12.4022       12.4022      12.390713       0.39669
  53    0.7617        0.0115        0.0000       12.3928       12.3928      12.381253       0.36506
  52     1.069        0.0115        0.0000       12.3807       12.3807      12.369212       0.33119
  51     1.499        0.0115        0.0000       12.3664       12.3664      12.354855       0.28159
  50     2.102        0.0115        0.0000       12.3498       12.3498      12.338221       0.23256
  49     2.949        0.0115        0.0000       12.3302       12.3302      12.318686       0.19473
  48     4.137        0.0115        0.0000       12.3067       12.3068      12.295221       0.16675
  47     5.803        0.0115        0.0000       12.2766       12.2766      12.265103       0.15257
  46     8.139        0.0115        0.0000       12.2347       12.2348      12.223235       0.15121
  45     11.42        0.0115        0.0000       12.1733       12.1733      12.161822       0.15812
  44     16.01        0.0115        0.0000       12.0830       12.0830      12.071511       0.16577
  43     22.46        0.0115        0.0000       11.9527       11.9527      11.941221       0.17049
  42     31.51        0.0115        0.0000       11.7748       11.7748      11.763336       0.16594
  41     44.20        0.0115        0.0001       11.5551       11.5552      11.543699       0.14607
  40     62.00        0.0115        0.0001       11.3050       11.3051      11.293631       0.11856
  39     85.78        0.0114        0.0001       11.0142       11.0143      11.002843       0.10322
  38     109.5        0.0114        0.0001       10.7175       10.7176      10.706223       0.10529
  37     133.1        0.0114        0.0002       10.4459       10.4460      10.434676       0.09752
  36     156.8        0.0113        0.0002       10.1944       10.1946      10.183288       0.08914
  35     180.6        0.0113        0.0002        9.9218        9.9220       9.910730       0.09676
  34     202.8        0.0113        0.0002        9.5970        9.5973       9.585959       0.12331
  33     228.4        0.0113        0.0002        9.1820        9.1823       9.171020       0.13690
  32     252.2        0.0113        0.0003        8.7004        8.7006       8.689375       0.17096
  31     276.0        0.0112        0.0003        8.1693        8.1695       8.158294       0.18851
  30     299.8        0.0112        0.0003        7.5886        7.5889       7.577628       0.20611
  29     323.5        0.0113        0.0003        6.9823        6.9825       6.971275       0.21523
  28     347.3        0.0113        0.0003        6.3629        6.3631       6.351825       0.21988
  27     371.1        0.0113        0.0002        5.7699        5.7701       5.758796       0.21050
  26     394.9        0.0114        0.0002        5.2041        5.2043       5.192880       0.20088
  25     418.6        0.0115        0.0002        4.6962        4.6964       4.684857       0.18033
  24     442.4        0.0117        0.0002        4.2409        4.2411       4.229431       0.16166
  23     466.2        0.0119        0.0002        3.8328        3.8330       3.821067       0.14495
  22     489.9        0.0122        0.0002        3.4648        3.4650       3.452870       0.13070
  21     513.7        0.0125        0.0002        3.1218        3.1220       3.109457       0.12190
  20     537.5        0.0130        0.0002        2.8040        2.8042       2.791169       0.11298
  19     561.3        0.0136        0.0002        2.5083        2.5084       2.494793       0.10520
  18     585.0        0.0144        0.0001        2.2301        2.2302       2.215794       0.09903
  17     608.8        0.0155        0.0001        1.9731        1.9732       1.957750       0.09159
  16     632.6        0.0168        0.0001        1.7337        1.7338       1.717083       0.08543
  15     656.4        0.0185        0.0001        1.5041        1.5042       1.485709       0.08213
  14     680.1        0.0209        0.0001        1.2888        1.2888       1.267978       0.07729
  13     703.9        0.0241        0.0001        1.0908        1.0909       1.066757       0.07143
  12     727.7        0.0287        0.0001        0.9082        0.9083       0.879561       0.06645
  11     751.5        0.0356        0.0001        0.7390        0.7391       0.703492       0.06250
  10     775.2        0.0462        0.0000        0.5856        0.5857       0.539469       0.05822
   9     799.0        0.0634        0.0000        0.4484        0.4484       0.385062       0.05481
   8     822.8        0.0371        0.0417        0.2477        0.2894       0.252353       0.04711
   7     846.6        0.0201        0.0466        0.1332        0.1798       0.159778       0.03286
   6     870.4        0.0087        0.0377        0.0696        0.1073       0.098613       0.02171
   5     894.1        0.0000        0.0258        0.0352        0.0610       0.061020       0.01334
   4     917.9        0.0000        0.0151        0.0228        0.0378       0.037809       0.00824
   3     941.7        0.0000        0.0083        0.0140        0.0223       0.022325       0.00550
   2     965.5        0.0000        0.0043        0.0083        0.0126       0.012553       0.00347
   1     989.2        0.0001        0.0021        0.0046        0.0068       0.006669       0.00209
   0    1013.0        0.0002        0.0010        0.0025        0.0034       0.003245       0.00122



 Wavenumbers:  4000. -  4650. cm-1, ATM      1
 LEVEL PRESSURE   UPWARD FLUX   DIFDOWN FLUX  DIRDOWN FLUX  DOWNWARD FLUX   NET FLUX    HEATING RATE
          mb          W/m2          W/m2          W/m2        W/m2          W/m2       degree/day
  60   .000300        3.6339        0.0000       14.6183       14.6183      10.984307       0.00000
  59    0.1000        3.6339        0.0000       14.6182       14.6182      10.984298       0.00076
  58    0.1403        3.6339        0.0000       14.6182       14.6182      10.984295       0.00076
  57    0.1968        3.6339        0.0000       14.6182       14.6182      10.984290       0.00077
  56    0.2760        3.6339        0.0000       14.6182       14.6182      10.984282       0.00076
  55    0.3871        3.6339        0.0000       14.6182       14.6182      10.984272       0.00080
  54    0.5430        3.6339        0.0000       14.6182       14.6182      10.984256       0.00085
