

 Wavenumbers:   820. - 50000. cm-1, ATM      1
 LEVEL PRESSURE   UPWARD FLUX   DIFDOWN FLUX  DIRDOWN FLUX  DOWNWARD FLUX   NET FLUX    HEATING RATE
          mb          W/m2          W/m2          W/m2        W/m2          W/m2       degree/day
  60   .000300      205.0459        0.0000      837.8224      837.8224     632.776462       0.00000
  59    0.1000      205.0403        0.0106      837.7137      837.7242     632.683885       7.83623
  58    0.1403      205.0383        0.0148      837.6563      837.6711     632.632826      10.69225
  57    0.1968      205.0356        0.0208      837.5614      837.5822     632.546546      12.88730
  56    0.2760      205.0322        0.0290      837.4070      837.4361     632.403925      15.19696
  55    0.3871      205.0277        0.0406      837.1641      837.2047     632.176975      17.23905
  54    0.5430      205.0221        0.0565      836.7876      836.8441     631.822023      19.21419
  53    0.7617      205.0157        0.0782      836.1942      836.2724     631.256708      21.81424
  52     1.069      205.0093        0.1080      835.2926      835.4006     630.391336      23.80379
  51     1.499      205.0051        0.1480      834.0471      834.1951     629.189973      23.56141
  50     2.102      205.0082        0.2017      832.4995      832.7012     627.693003      20.92967
  49     2.949      205.0285        0.2767      830.7483      831.0250     625.996515      16.91107
  48     4.137      205.0778        0.3808      828.8944      829.2752     624.197380      12.78474
  47     5.803      205.1622        0.5251      826.9459      827.4710     622.308778       9.56731
  46     8.139      205.2772        0.7257      824.8978      825.6236     620.346362       7.08739
  45     11.42      205.4104        1.0047      822.7006      823.7053     618.294934       5.28168
  44     16.01      205.5524        1.3919      820.2525      821.6443     616.091904       4.04369
  43     22.46      205.6914        1.9298      817.4463      819.3761     613.684762       3.14983
  42     31.51      205.7787        2.6773      814.2518      816.9290     611.150370       2.36424
  41     44.20      205.7215        3.7176      810.6480      814.3656     608.644094       1.66677
  40     62.00      205.4495        5.1516      806.4553      811.6070     606.157452       1.17895
  39     85.78      204.8367        7.0405      801.7674      808.8079     603.971151       0.77605
  38     109.5      204.0810        8.9303      797.4817      806.4120     602.331047       0.58217
  37     133.1      203.3180       10.7158      793.5510      804.2668     600.948815       0.49638
  36     156.8      202.5570       12.4218      789.8548      802.2766     599.719565       0.43589
  35     180.6      201.7224       14.2043      786.0084      800.2127     598.490337       0.43640
  34     202.8      200.8933       15.8922      782.2124      798.1045     597.211265       0.48564
  33     228.4      200.0357       17.5841      778.0467      795.6308     595.595068       0.53324
  32     252.2      199.1697       19.2508      773.4741      792.7249     593.555244       0.72405
  31     276.0      198.3081       20.8697      768.4389      789.3086     591.000523       0.90682
  30     299.8      197.4368       22.4731      762.7642      785.2373     587.800458       1.13589
  29     323.5      196.5653       24.0514      756.6288      780.6802     584.114862       1.30823
  28     347.3      195.7049       25.5882      750.2254      775.8136     580.108693       1.42202
  27     371.1      194.8594       27.0792      743.7251      770.8043     575.944878       1.47798
  26     394.9      194.0079       28.5646      736.8957      765.4603     571.452376       1.59465
  25     418.6      193.1664       30.0200      729.8721      759.8921     566.725697       1.67778
  24     442.4      192.3356       31.4483      722.6783      754.1266     561.790968       1.75163
  23     466.2      191.5137       32.8547      715.4381      748.2928     556.779109       1.77900
  22     489.9      190.7144       34.2206      708.2772      742.4978     551.783351       1.77329
  21     513.7      189.9274       35.5699      701.0441      736.6140     546.686563       1.80915
  20     537.5      189.1687       36.8826      693.8325      730.7150     541.546330       1.82457
  19     561.3      188.4408       38.1615      686.6319      724.7934     536.352628       1.84355
  18     585.0      187.7303       39.4347      679.3701      718.8048     531.074530       1.87351
  17     608.8      187.0569       40.6725      672.2525      712.9250     525.868144       1.84805
  16     632.6      186.4250       41.8762      665.2624      707.1386     520.713547       1.82967
  15     656.4      185.8320       43.0706      658.1915      701.2621     515.430065       1.87542
  14     680.1      185.3040       44.2317      651.1209      695.3527     510.048710       1.91016
  13     703.9      184.8534       45.3605      644.0582      689.4187     504.565287       1.94639
  12     727.7      184.4941       46.4741      636.8758      683.3499     498.855871       2.02661
  11     751.5      184.2635       47.5716      629.4911      677.0627     492.799219       2.14986
  10     775.2      184.2075       48.6395      621.9804      670.6198     486.412268       2.26710
   9     799.0      184.3865       49.6779      614.3441      664.0220     479.635477       2.40548
   8     822.8      145.4070      102.5805      515.6650      618.2455     472.838546       2.41263
   7     846.6      107.2135      141.0726      432.9865      574.0591     466.845564       2.12726
   6     870.4       69.6400      167.6138      363.6919      531.3057     461.665657       1.83865
   5     894.1       32.5247      184.2091      305.5785      489.7876     457.262914       1.56279
   4     917.9       31.7761      182.9932      302.0679      485.0612     453.285085       1.41197
   3     941.7       31.0390      181.8134      298.6253      480.4388     449.399737       1.37914
   2     965.5       30.3218      180.6710      295.2691      475.9401     445.618246       1.34227
   1     989.2       29.6277      179.5616      291.9966      471.5581     441.930445       1.30874
   0    1013.0       28.9613      178.4811      288.8006      467.2817     438.320482       1.28166



 Wavenumbers:  2600. -  3250. cm-1, ATM      1
 LEVEL PRESSURE   UPWARD FLUX   DIFDOWN FLUX  DIRDOWN FLUX  DOWNWARD FLUX   NET FLUX    HEATING RATE
          mb          W/m2          W/m2          W/m2        W/m2          W/m2       degree/day
  60   .000300        0.7452        0.0000        7.3841        7.3841       6.638910       0.00000
  59    0.1000        0.7452        0.0000        7.3840        7.3840       6.638838       0.00613
  58    0.1403        0.7452        0.0000        7.3840        7.3840       6.638808       0.00614
  57    0.1968        0.7452        0.0000        7.3839        7.3839       6.638767       0.00616
  56    0.2760        0.7452        0.0000        7.3839        7.3839       6.638710       0.00613
  55    0.3871        0.7452        0.0000        7.3838        7.3838       6.638625       0.00641
  54    0.5430        0.7452        0.0000        7.3837        7.3837       6.638500       0.00678
  53    0.7617        0.7452        0.0000        7.3835        7.3835       6.638303       0.00761
  52     1.069        0.7452        0.0000        7.3831        7.3831       6.637973       0.00908
  51     1.499        0.7452        0.0000        7.3825        7.3825       6.637364       0.01193
  50     2.102        0.7452        0.0000        7.3814        7.3814       6.636275       0.01522
  49     2.949        0.7452        0.0000        7.3795        7.3795       6.634390       0.01880
  48     4.137        0.7452        0.0000        7.3765        7.3765       6.631376       0.02142
  47     5.803        0.7452        0.0000        7.3721        7.3721       6.626945       0.02245
  46     8.139        0.7452        0.0000        7.3661        7.3661       6.620937       0.02170
  45     11.42        0.7452        0.0000        7.3586        7.3586       6.613431       0.01933
  44     16.01        0.7452        0.0000        7.3500        7.3500       6.604856       0.01574
  43     22.46        0.7452        0.0000        7.3407        7.3407       6.595540       0.01219
  42     31.51        0.7452        0.0000        7.3297        7.3297       6.584576       0.01023
  41     44.20        0.7452        0.0000        7.3134        7.3134       6.568224       0.01087
  40     62.00        0.7452        0.0000        7.2860        7.2860       6.540816       0.01299
  39     85.78        0.7453        0.0000        7.2438        7.2439       6.498620       0.01498
  38     109.5        0.7453        0.0000        7.1969        7.1969       6.451616       0.01668
  37     133.1        0.7454        0.0001        7.1517        7.1518       6.406372       0.01625
  36     156.8        0.7455        0.0001        7.1092        7.1093       6.363768       0.01511
  35     180.6        0.7457        0.0001        7.0662        7.0663       6.320612       0.01532
  34     202.8        0.7458        0.0001        7.0262        7.0262       6.280416       0.01526
  33     228.4        0.7461        0.0001        6.9846        6.9847       6.238649       0.01378
  32     252.2        0.7464        0.0001        6.9407        6.9408       6.194362       0.01572
  31     276.0        0.7469        0.0001        6.8941        6.8942       6.147365       0.01668
  30     299.8        0.7475        0.0001        6.8424        6.8426       6.095090       0.01856
  29     323.5        0.7482        0.0001        6.7849        6.7850       6.036803       0.02069
  28     347.3        0.7492        0.0001        6.7206        6.7207       5.971518       0.02317
  27     371.1        0.7504        0.0001        6.6496        6.6497       5.899302       0.02563
  26     394.9        0.7519        0.0001        6.5676        6.5677       5.815851       0.02962
  25     418.6        0.7536        0.0001        6.4741        6.4743       5.720634       0.03380
  24     442.4        0.7558        0.0002        6.3671        6.3673       5.611533       0.03873
  23     466.2        0.7583        0.0002        6.2486        6.2487       5.490447       0.04298
  22     489.9        0.7612        0.0002        6.1205        6.1206       5.359450       0.04650
  21     513.7        0.7647        0.0002        5.9812        5.9814       5.216678       0.05068
  20     537.5        0.7688        0.0002        5.8338        5.8340       5.065191       0.05377
  19     561.3        0.7737        0.0002        5.6819        5.6821       4.908403       0.05565
  18     585.0        0.7793        0.0002        5.5274        5.5276       4.748273       0.05684
  17     608.8        0.7858        0.0002        5.3761        5.3762       4.590408       0.05604
  16     632.6        0.7933        0.0002        5.2281        5.2283       4.434985       0.05517
  15     656.4        0.8021        0.0002        5.0791        5.0793       4.277132       0.05603
  14     680.1        0.8126        0.0002        4.9299        4.9301       4.117441       0.05668
  13     703.9        0.8251        0.0002        4.7798        4.7800       3.954866       0.05771
  12     727.7        0.8404        0.0002        4.6253        4.6255       3.785086       0.06026
  11     751.5        0.8596        0.0002        4.4633        4.4635       3.603873       0.06432
  10     775.2        0.8838        0.0002        4.2949        4.2950       3.411204       0.06839
   9     799.0        0.9150        0.0002        4.1205        4.1207       3.205710       0.07294
   8     822.8        0.6922        0.3396        3.3515        3.6911       2.998959       0.07339
   7     846.6        0.4801        0.5712        2.7265        3.2977       2.817641       0.06436
   6     870.4        0.2756        0.7184        2.2197        2.9381       2.662529       0.05506
   5     894.1        0.0754        0.7997        1.8084        2.6081       2.532706       0.04608
   4     917.9        0.0775        0.7618        1.7337        2.4955       2.417933       0.04074
   3     941.7        0.0800        0.7262        1.6620        2.3882       2.308225       0.03894
   2     965.5        0.0829        0.6927        1.5937        2.2864       2.203501       0.03717
   1     989.2        0.0863        0.6611        1.5287        2.1898       2.103496       0.03549
   0    1013.0        0.0903        0.6311        1.4665        2.0976       2.007225       0.03418



 Wavenumbers:  3250. -  4000. cm-1, ATM      1
 LEVEL PRESSURE   UPWARD FLUX   DIFDOWN FLUX  DIRDOWN FLUX  DOWNWARD FLUX   NET FLUX    HEATING RATE
          mb          W/m2          W/m2          W/m2        W/m2          W/m2       degree/day
  60   .000300        0.0075        0.0000       12.4485       12.4485      12.440950       0.00000
  59    0.1000        0.0075        0.0000       12.4290       12.4290      12.421448       1.65079
  58    0.1403        0.0075        0.0000       12.4252       12.4252      12.417734       0.77776
  57    0.1968        0.0075        0.0000       12.4208       12.4208      12.413261       0.66803
  56    0.2760        0.0075        0.0000       12.4156       12.4156      12.408098       0.55013
  55    0.3871        0.0075        0.0000       12.4096       12.4096      12.402066       0.45825
  54    0.5430        0.0075        0.0000       12.4022       12.4022      12.394737       0.39669
  53    0.7617        0.0075        0.0000       12.3928       12.3928      12.385277       0.36506
  52     1.069        0.0075        0.0000       12.3807       12.3807      12.373237       0.33119
  51     1.499        0.0075        0.0000       12.3664       12.3664      12.358879       0.28159
  50     2.102        0.0075        0.0000       12.3498       12.3498      12.342246       0.23256
  49     2.949        0.0075        0.0000       12.3302       12.3302      12.322711       0.19473
  48     4.137        0.0075        0.0000       12.3067       12.3068      12.299245       0.16675
  47     5.803        0.0075        0.0000       12.2766       12.2766      12.269128       0.15257
  46     8.139        0.0075        0.0000       12.2347       12.2348      12.227260       0.15121
  45     11.42        0.0075        0.0000       12.1733       12.1733      12.165846       0.15812
  44     16.01        0.0075        0.0000       12.0830       12.0830      12.075535       0.16577
  43     22.46        0.0075        0.0000       11.9527       11.9527      11.945245       0.17049
  42     31.51        0.0075        0.0000       11.7748       11.7748      11.767360       0.16594
  41     44.20        0.0075        0.0001       11.5551       11.5552      11.547723       0.14607
  40     62.00        0.0074        0.0001       11.3050       11.3051      11.297655       0.11856
  39     85.78        0.0074        0.0001       11.0142       11.0143      11.006868       0.10322
  38     109.5        0.0074        0.0001       10.7175       10.7176      10.710247       0.10529
  37     133.1        0.0073        0.0002       10.4459       10.4460      10.438701       0.09752
  36     156.8        0.0073        0.0002       10.1944       10.1946      10.187313       0.08914
  35     180.6        0.0073        0.0002        9.9218        9.9220       9.914754       0.09676
  34     202.8        0.0073        0.0002        9.5970        9.5973       9.589984       0.12331
  33     228.4        0.0072        0.0002        9.1820        9.1823       9.175046       0.13690
  32     252.2        0.0072        0.0003        8.7004        8.7006       8.693403       0.17096
  31     276.0        0.0072        0.0003        8.1693        8.1695       8.162325       0.18851
  30     299.8        0.0072        0.0003        7.5886        7.5889       7.581665       0.20611
  29     323.5        0.0072        0.0003        6.9823        6.9825       6.975322       0.21523
  28     347.3        0.0072        0.0003        6.3629        6.3631       6.355888       0.21987
  27     371.1        0.0072        0.0002        5.7699        5.7701       5.762882       0.21049
  26     394.9        0.0073        0.0002        5.2041        5.2043       5.196998       0.20087
  25     418.6        0.0074        0.0002        4.6962        4.6964       4.689020       0.18031
  24     442.4        0.0075        0.0002        4.2409        4.2411       4.233655       0.16164
  23     466.2        0.0076        0.0002        3.8328        3.8330       3.825372       0.14492
  22     489.9        0.0078        0.0002        3.4648        3.4650       3.457277       0.13066
  21     513.7        0.0080        0.0002        3.1218        3.1220       3.114000       0.12185
  20     537.5        0.0083        0.0002        2.8040        2.8042       2.795887       0.11292
  19     561.3        0.0087        0.0002        2.5083        2.5084       2.499738       0.10512
  18     585.0        0.0092        0.0001        2.2301        2.2302       2.221033       0.09893
  17     608.8        0.0098        0.0001        1.9731        1.9732       1.963363       0.09146
  16     632.6        0.0107        0.0001        1.7337        1.7338       1.723174       0.08526
  15     656.4        0.0118        0.0001        1.5041        1.5042       1.492437       0.08190
  14     680.1        0.0133        0.0001        1.2888        1.2888       1.275565       0.07698
  13     703.9        0.0153        0.0001        1.0908        1.0909       1.075516       0.07101
  12     727.7        0.0183        0.0001        0.9082        0.9083       0.889992       0.06585
  11     751.5        0.0226        0.0001        0.7390        0.7391       0.716429       0.06161
  10     775.2        0.0294        0.0000        0.5856        0.5857       0.556272       0.05685
   9     799.0        0.0403        0.0000        0.4484        0.4484       0.408114       0.05259
   8     822.8        0.0247        0.0250        0.2798        0.3048       0.280132       0.04543
   7     846.6        0.0139        0.0305        0.1699        0.2004       0.186520       0.03323
   6     870.4        0.0062        0.0266        0.1003        0.1269       0.120740       0.02335
   5     894.1        0.0000        0.0216        0.0573        0.0790       0.078988       0.01482
   4     917.9        0.0000        0.0126        0.0370        0.0497       0.049674       0.01041
   3     941.7        0.0000        0.0070        0.0229        0.0298       0.029803       0.00705
   2     965.5        0.0000        0.0036        0.0135        0.0171       0.017049       0.00453
   1     989.2        0.0001        0.0018        0.0075        0.0093       0.009244       0.00277
   0    1013.0        0.0002        0.0008        0.0040        0.0048       0.004649       0.00163



 Wavenumbers:  4000. -  4650. cm-1, ATM      1
 LEVEL PRESSURE   UPWARD FLUX   DIFDOWN FLUX  DIRDOWN FLUX  DOWNWARD FLUX   NET FLUX    HEATING RATE
          mb          W/m2          W/m2          W/m2        W/m2          W/m2       degree/day
  60   .000300        2.5693        0.0000       14.6183       14.6183      12.048918       0.00000
  59    0.1000        2.5693        0.0000       14.6182       14.6182      12.048909       0.00076
  58    0.1403        2.5693        0.0000       14.6182       14.6182      12.048906       0.00076
  57    0.1968        2.5693        0.0000       14.6182       14.6182      12.048901       0.00077
  56    0.2760        2.5693        0.0000       14.6182       14.6182      12.048893       0.00076
  55    0.3871        2.5693        0.0000       14.6182       14.6182      12.048883       0.00080
  54    0.5430        2.5693        0.0000       14.6182       14.6182      12.048867       0.00085
