

 Wavenumbers:   820. - 50000. cm-1, ATM      1
 LEVEL PRESSURE   UPWARD FLUX   DIFDOWN FLUX  DIRDOWN FLUX  DOWNWARD FLUX   NET FLUX    HEATING RATE
          mb          W/m2          W/m2          W/m2        W/m2          W/m2       degree/day
  60   .000300      315.0323        0.0000      837.8224      837.8224     522.790061       0.00000
  59    0.1000      315.0277        0.0113      837.7137      837.7250     522.697283       7.85323
  58    0.1403      315.0261        0.0159      837.6563      837.6722     522.646069      10.72463
  57    0.1968      315.0241        0.0223      837.5614      837.5836     522.559511      12.92874
  56    0.2760      315.0218        0.0311      837.4070      837.4382     522.416405      15.24867
  55    0.3871      315.0189        0.0435      837.1641      837.2076     522.188640      17.30105
  54    0.5430      315.0159        0.0606      836.7876      836.8482     521.832321      19.28818
  53    0.7617      315.0136        0.0840      836.1942      836.2782     521.264597      21.90719
  52     1.069      315.0138        0.1161      835.2926      835.4087     520.394904      23.92264
  51     1.499      315.0206        0.1593      834.0471      834.2064     519.185829      23.71266
  50     2.102      315.0423        0.2176      832.4995      832.7171     517.674830      21.12582
  49     2.949      315.0949        0.2989      830.7483      831.0472     515.952288      17.17078
  48     4.137      315.1980        0.4119      828.8944      829.3063     514.108300      13.10347
  47     5.803      315.3637        0.5688      826.9459      827.5147     512.151021       9.91522
  46     8.139      315.5902        0.7869      824.8978      825.6848     510.094606       7.42688
  45     11.42      315.8667        1.0905      822.7006      823.7911     507.924412       5.58746
  44     16.01      316.1890        1.5121      820.2525      821.7646     505.575557       4.31136
  43     22.46      316.5528        2.0984      817.4463      819.5447     502.991925       3.38078
  42     31.51      316.9068        2.9139      814.2518      817.1656     500.258897       2.54954
  41     44.20      317.1448        4.0501      810.6480      814.6981     497.553303       1.79933
  40     62.00      317.2002        5.6184      806.4553      812.0737     494.873522       1.27052
  39     85.78      316.9175        7.6875      801.7674      809.4549     492.537431       0.82922
  38     109.5      316.4410        9.7616      797.4817      807.2433     490.802232       0.61592
  37     133.1      315.9309       11.7248      793.5510      805.2757     489.344833       0.52337
  36     156.8      315.4075       13.6040      789.8548      803.4588     488.051309       0.45868
  35     180.6      314.8136       15.5710      786.0084      801.5794     486.765811       0.45638
  34     202.8      314.2051       17.4370      782.2124      799.6493     485.444249       0.50177
  33     228.4      313.5674       19.3109      778.0467      797.3576     483.790221       0.54573
  32     252.2      312.9194       21.1604      773.4741      794.6345     481.715182       0.73655
  31     276.0      312.2712       22.9603      768.4389      791.3992     479.127975       0.91835
  30     299.8      311.6148       24.7464      762.7642      787.5106     475.895843       1.14727
  29     323.5      310.9607       26.5083      756.6288      783.1370     472.176289       1.32029
  28     347.3      310.3192       28.2272      750.2254      778.4526     468.133400       1.43506
  27     371.1      309.6936       29.8983      743.7251      773.6234     463.929797       1.49211
  26     394.9      309.0704       31.5667      736.8957      768.4624     459.392037       1.61072
  25     418.6      308.4633       33.2049      729.8721      763.0770     454.613764       1.69609
  24     442.4      307.8751       34.8162      722.6783      757.4945     449.619397       1.77279
  23     466.2      307.3057       36.4064      715.4381      751.8445     444.538805       1.80340
  22     489.9      306.7673       37.9543      708.2772      746.2315     439.464196       1.80128
  21     513.7      306.2568       39.4870      701.0441      740.5311     434.274316       1.84219
  20     537.5      305.7891       40.9816      693.8325      734.8141     429.024952       1.86331
  19     561.3      305.3705       42.4413      686.6319      729.0733     423.702752       1.88916
  18     585.0      304.9965       43.8982      679.3701      723.2683     418.271863       1.92774
  17     608.8      304.6813       45.3182      672.2525      717.5707     412.889373       1.91056
  16     632.6      304.4336       46.7025      665.2624      711.9649     407.531360       1.90187
  15     656.4      304.2669       48.0798      658.1915      706.2713     402.004355       1.96186
  14     680.1      304.2112       49.4224      651.1209      700.5433     396.332157       2.01340
  13     703.9      304.2898       50.7312      644.0582      694.7894     390.499627       2.07031
  12     727.7      304.5420       52.0261      636.8758      688.9019     384.359946       2.17933
  11     751.5      305.0378       53.3061      629.4911      682.7972     377.759386       2.34293
  10     775.2      305.8527       54.5555      621.9804      676.5359     370.683177       2.51176
   9     799.0      307.1017       55.7743      614.3441      670.1185     363.016768       2.72126
   8     822.8      233.2914      184.5948      404.1378      588.7327     355.441313       2.68897
   7     846.6      162.9159      246.1787      265.9504      512.1291     349.213234       2.21071
   6     870.4       94.8120      264.0271      175.0773      439.1044     344.292436       1.74668
   5     894.1       28.1355      253.4715      115.2879      368.7594     340.623885       1.30218
   4     917.9       27.5826      251.2294      113.9635      365.1929     337.610320       1.06969
   3     941.7       27.0396      249.0460      112.6647      361.7107     334.671131       1.04329
   2     965.5       26.5127      246.9271      111.3984      358.3255     331.812814       1.01458
   1     989.2       26.0047      244.8669      110.1637      355.0306     329.025899       0.98903
   0    1013.0       25.5193      242.8596      108.9580      351.8176     326.298300       0.96839



 Wavenumbers:  2600. -  3250. cm-1, ATM      1
 LEVEL PRESSURE   UPWARD FLUX   DIFDOWN FLUX  DIRDOWN FLUX  DOWNWARD FLUX   NET FLUX    HEATING RATE
          mb          W/m2          W/m2          W/m2        W/m2          W/m2       degree/day
  60   .000300        1.3128        0.0000        7.3841        7.3841       6.071286       0.00000
  59    0.1000        1.3128        0.0000        7.3840        7.3840       6.071214       0.00613
  58    0.1403        1.3128        0.0000        7.3840        7.3840       6.071184       0.00614
  57    0.1968        1.3128        0.0000        7.3839        7.3839       6.071143       0.00616
  56    0.2760        1.3128        0.0000        7.3839        7.3839       6.071086       0.00613
  55    0.3871        1.3128        0.0000        7.3838        7.3838       6.071001       0.00642
  54    0.5430        1.3128        0.0000        7.3837        7.3837       6.070876       0.00678
  53    0.7617        1.3128        0.0000        7.3835        7.3835       6.070679       0.00761
  52     1.069        1.3128        0.0000        7.3831        7.3831       6.070349       0.00908
  51     1.499        1.3128        0.0000        7.3825        7.3825       6.069740       0.01193
  50     2.102        1.3128        0.0000        7.3814        7.3814       6.068651       0.01522
  49     2.949        1.3128        0.0000        7.3795        7.3795       6.066766       0.01880
  48     4.137        1.3128        0.0000        7.3765        7.3765       6.063752       0.02142
  47     5.803        1.3128        0.0000        7.3721        7.3721       6.059320       0.02245
  46     8.139        1.3128        0.0000        7.3661        7.3661       6.053313       0.02170
  45     11.42        1.3128        0.0000        7.3586        7.3586       6.045806       0.01933
  44     16.01        1.3128        0.0000        7.3500        7.3500       6.037228       0.01574
  43     22.46        1.3128        0.0000        7.3407        7.3407       6.027909       0.01219
  42     31.51        1.3128        0.0000        7.3297        7.3297       6.016938       0.01023
  41     44.20        1.3128        0.0000        7.3134        7.3134       6.000574       0.01088
  40     62.00        1.3129        0.0000        7.2860        7.2860       5.973139       0.01301
  39     85.78        1.3130        0.0000        7.2438        7.2439       5.930892       0.01500
  38     109.5        1.3131        0.0000        7.1969        7.1970       5.883821       0.01671
  37     133.1        1.3133        0.0001        7.1517        7.1518       5.838499       0.01628
  36     156.8        1.3135        0.0001        7.1092        7.1093       5.795803       0.01514
  35     180.6        1.3137        0.0001        7.0662        7.0663       5.752534       0.01536
  34     202.8        1.3140        0.0001        7.0262        7.0262       5.712199       0.01531
  33     228.4        1.3145        0.0001        6.9846        6.9847       5.670233       0.01385
  32     252.2        1.3151        0.0001        6.9407        6.9408       5.625658       0.01582
  31     276.0        1.3160        0.0001        6.8941        6.8942       5.578291       0.01681
  30     299.8        1.3170        0.0001        6.8424        6.8426       5.525528       0.01873
  29     323.5        1.3184        0.0001        6.7849        6.7851       5.466612       0.02091
  28     347.3        1.3202        0.0001        6.7206        6.7208       5.400534       0.02345
  27     371.1        1.3224        0.0001        6.6496        6.6497       5.327356       0.02598
  26     394.9        1.3250        0.0002        6.5676        6.5677       5.242715       0.03004
  25     418.6        1.3282        0.0002        6.4741        6.4743       5.146064       0.03431
  24     442.4        1.3321        0.0002        6.3671        6.3673       5.035232       0.03934
  23     466.2        1.3366        0.0002        6.2486        6.2487       4.912102       0.04371
  22     489.9        1.3419        0.0002        6.1205        6.1206       4.778717       0.04735
  21     513.7        1.3483        0.0002        5.9812        5.9814       4.633084       0.05169
  20     537.5        1.3558        0.0002        5.8338        5.8340       4.478210       0.05497
  19     561.3        1.3646        0.0002        5.6819        5.6821       4.317443       0.05707
  18     585.0        1.3750        0.0002        5.5274        5.5276       4.152633       0.05850
  17     608.8        1.3869        0.0002        5.3761        5.3763       3.989402       0.05794
  16     632.6        1.4005        0.0002        5.2281        5.2283       3.827811       0.05736
  15     656.4        1.4167        0.0002        5.0791        5.0793       3.662616       0.05864
  14     680.1        1.4359        0.0002        4.9299        4.9301       3.494199       0.05978
  13     703.9        1.4588        0.0002        4.7798        4.7800       3.321183       0.06141
  12     727.7        1.4869        0.0002        4.6253        4.6255       3.138558       0.06482
  11     751.5        1.5224        0.0002        4.4633        4.4635       2.941102       0.07009
  10     775.2        1.5673        0.0002        4.2949        4.2951       2.727788       0.07572
   9     799.0        1.6252        0.0002        4.1205        4.1207       2.495539       0.08244
   8     822.8        1.1877        0.8265        2.6270        3.4535       2.265821       0.08154
   7     846.6        0.7910        1.1943        1.6749        2.8693       2.078241       0.06658
   6     870.4        0.4209        1.2841        1.0686        2.3528       1.931891       0.05195
   5     894.1        0.0668        1.2091        0.6825        1.8916       1.824730       0.03804
   4     917.9        0.0687        1.1531        0.6543        1.8074       1.738723       0.03053
   3     941.7        0.0708        1.1004        0.6272        1.7276       1.656793       0.02908
   2     965.5        0.0733        1.0505        0.6014        1.6520       1.578687       0.02772
   1     989.2        0.0762        1.0033        0.5769        1.5803       1.504064       0.02648
   0    1013.0        0.0796        0.9585        0.5534        1.5119       1.432274       0.02549



 Wavenumbers:  3250. -  4000. cm-1, ATM      1
 LEVEL PRESSURE   UPWARD FLUX   DIFDOWN FLUX  DIRDOWN FLUX  DOWNWARD FLUX   NET FLUX    HEATING RATE
          mb          W/m2          W/m2          W/m2        W/m2          W/m2       degree/day
  60   .000300        0.0148        0.0000       12.4485       12.4485      12.433623       0.00000
  59    0.1000        0.0148        0.0000       12.4290       12.4290      12.414121       1.65079
  58    0.1403        0.0148        0.0000       12.4252       12.4252      12.410407       0.77776
  57    0.1968        0.0148        0.0000       12.4208       12.4208      12.405934       0.66803
  56    0.2760        0.0148        0.0000       12.4156       12.4156      12.400771       0.55013
  55    0.3871        0.0148        0.0000       12.4096       12.4096      12.394738       0.45825
  54    0.5430        0.0148        0.0000       12.4022       12.4022      12.387410       0.39669
  53    0.7617        0.0148        0.0000       12.3928       12.3928      12.377950       0.36506
  52     1.069        0.0148        0.0000       12.3807       12.3807      12.365909       0.33119
  51     1.499        0.0148        0.0000       12.3664       12.3664      12.351552       0.28159
  50     2.102        0.0148        0.0000       12.3498       12.3498      12.334918       0.23256
  49     2.949        0.0148        0.0000       12.3302       12.3302      12.315383       0.19473
  48     4.137        0.0148        0.0000       12.3067       12.3068      12.291918       0.16675
  47     5.803        0.0148        0.0000       12.2766       12.2766      12.261800       0.15257
  46     8.139        0.0148        0.0000       12.2347       12.2348      12.219932       0.15121
  45     11.42        0.0148        0.0000       12.1733       12.1733      12.158519       0.15812
  44     16.01        0.0148        0.0000       12.0830       12.0830      12.068208       0.16577
  43     22.46        0.0148        0.0000       11.9527       11.9527      11.937918       0.17049
  42     31.51        0.0148        0.0000       11.7748       11.7748      11.760033       0.16594
  41     44.20        0.0148        0.0001       11.5551       11.5552      11.540396       0.14607
  40     62.00        0.0148        0.0001       11.3050       11.3051      11.290328       0.11856
  39     85.78        0.0147        0.0001       11.0142       11.0143      10.999540       0.10322
  38     109.5        0.0147        0.0001       10.7175       10.7176      10.702920       0.10529
  37     133.1        0.0147        0.0002       10.4459       10.4460      10.431373       0.09752
  36     156.8        0.0146        0.0002       10.1944       10.1946      10.179985       0.08914
  35     180.6        0.0146        0.0002        9.9218        9.9220       9.907426       0.09676
  34     202.8        0.0146        0.0002        9.5970        9.5973       9.582655       0.12331
  33     228.4        0.0146        0.0002        9.1820        9.1823       9.167716       0.13690
  32     252.2        0.0146        0.0003        8.7004        8.7006       8.686069       0.17096
  31     276.0        0.0146        0.0003        8.1693        8.1695       8.154985       0.18851
  30     299.8        0.0146        0.0003        7.5886        7.5889       7.574315       0.20611
  29     323.5        0.0146        0.0003        6.9823        6.9825       6.967953       0.21523
  28     347.3        0.0146        0.0003        6.3629        6.3631       6.348490       0.21988
  27     371.1        0.0147        0.0002        5.7699        5.7701       5.755443       0.21051
  26     394.9        0.0148        0.0002        5.2041        5.2043       5.189500       0.20089
  25     418.6        0.0149        0.0002        4.6962        4.6964       4.681440       0.18034
  24     442.4        0.0151        0.0002        4.2409        4.2411       4.225965       0.16168
  23     466.2        0.0154        0.0002        3.8328        3.8330       3.817535       0.14498
  22     489.9        0.0158        0.0002        3.4648        3.4650       3.449252       0.13073
  21     513.7        0.0163        0.0002        3.1218        3.1220       3.105728       0.12194
  20     537.5        0.0169        0.0002        2.8040        2.8042       2.787296       0.11303
  19     561.3        0.0177        0.0002        2.5083        2.5084       2.490735       0.10527
  18     585.0        0.0187        0.0001        2.2301        2.2302       2.211493       0.09912
  17     608.8        0.0201        0.0001        1.9731        1.9732       1.953143       0.09170
  16     632.6        0.0218        0.0001        1.7337        1.7338       1.712084       0.08557
  15     656.4        0.0240        0.0001        1.5041        1.5042       1.480187       0.08231
  14     680.1        0.0271        0.0001        1.2888        1.2888       1.261752       0.07754
  13     703.9        0.0313        0.0001        1.0908        1.0909       1.059568       0.07177
  12     727.7        0.0373        0.0001        0.9082        0.9083       0.870999       0.06693
  11     751.5        0.0462        0.0001        0.7390        0.7391       0.692873       0.06323
  10     775.2        0.0600        0.0000        0.5856        0.5857       0.525675       0.05935
   9     799.0        0.0823        0.0000        0.4484        0.4484       0.366133       0.05663
   8     822.8        0.0461        0.0568        0.2193        0.2761       0.230029       0.04831
   7     846.6        0.0240        0.0586        0.1044        0.1630       0.139024       0.03230
   6     870.4        0.0101        0.0437        0.0483        0.0920       0.081961       0.02025
   5     894.1        0.0000        0.0275        0.0216        0.0492       0.049147       0.01165
   4     917.9        0.0000        0.0161        0.0140        0.0300       0.030036       0.00678
   3     941.7        0.0000        0.0089        0.0086        0.0175       0.017472       0.00446
   2     965.5        0.0000        0.0046        0.0051        0.0097       0.009670       0.00277
   1     989.2        0.0001        0.0023        0.0028        0.0051       0.005061       0.00164
   0    1013.0        0.0001        0.0010        0.0015        0.0026       0.002441       0.00093



 Wavenumbers:  4000. -  4650. cm-1, ATM      1
 LEVEL PRESSURE   UPWARD FLUX   DIFDOWN FLUX  DIRDOWN FLUX  DOWNWARD FLUX   NET FLUX    HEATING RATE
          mb          W/m2          W/m2          W/m2        W/m2          W/m2       degree/day
  60   .000300        4.4600        0.0000       14.6183       14.6183      10.158304       0.00000
  59    0.1000        4.4600        0.0000       14.6182       14.6182      10.158295       0.00076
  58    0.1403        4.4600        0.0000       14.6182       14.6182      10.158291       0.00077
  57    0.1968        4.4600        0.0000       14.6182       14.6182      10.158286       0.00077
  56    0.2760        4.4600        0.0000       14.6182       14.6182      10.158279       0.00076
  55    0.3871        4.4600        0.0000       14.6182       14.6182      10.158268       0.00080
  54    0.5430        4.4599        0.0000       14.6182       14.6182      10.158253       0.00085
