

 Wavenumbers:   820. - 50000. cm-1, ATM      1
 LEVEL PRESSURE   UPWARD FLUX   DIFDOWN FLUX  DIRDOWN FLUX  DOWNWARD FLUX   NET FLUX    HEATING RATE
          mb          W/m2          W/m2          W/m2        W/m2          W/m2       degree/day
  60   .000300      370.7485        0.0000      837.8224      837.8224     467.073864       0.00000
  59    0.1000      370.7444        0.0117      837.7137      837.7254     466.980983       7.86197
  58    0.1403      370.7431        0.0164      837.6563      837.6728     466.929689      10.74131
  57    0.1968      370.7414        0.0231      837.5614      837.5844     466.842988      12.95009
  56    0.2760      370.7396        0.0322      837.4070      837.4393     466.699632      15.27532
  55    0.3871      370.7377        0.0451      837.1641      837.2091     466.471445      17.33302
  54    0.5430      370.7360        0.0628      836.7876      836.8504     466.114421      19.32635
  53    0.7617      370.7358        0.0870      836.1942      836.2812     465.545455      21.95515
  52     1.069      370.7395        0.1204      835.2926      835.4130     464.673532      23.98398
  51     1.499      370.7519        0.1653      834.0471      834.2124     463.460478      23.79071
  50     2.102      370.7832        0.2259      832.4995      832.7254     461.942238      21.22705
  49     2.949      370.8526        0.3106      830.7483      831.0589     460.206250      17.30481
  48     4.137      370.9836        0.4283      828.8944      829.3227     458.339114      13.26796
  47     5.803      371.1913        0.5918      826.9459      827.5377     456.346392      10.09477
  46     8.139      371.4756        0.8192      824.8978      825.7170     454.241464       7.60209
  45     11.42      371.8263        1.1357      822.7006      823.8363     452.009973       5.74528
  44     16.01      372.2420        1.5754      820.2525      821.8279     449.585847       4.44952
  43     22.46      372.7224        2.1872      817.4463      819.6335     446.911099       3.50001
  42     31.51      373.2148        3.0385      814.2518      817.2903     444.075500       2.64523
  41     44.20      373.6063        4.2253      810.6480      814.8732     441.266960       1.86779
  40     62.00      373.8322        5.8643      806.4553      812.3196     438.487407       1.31783
  39     85.78      373.7218        8.0283      801.7674      809.7957     436.073940       0.85668
  38     109.5      373.3913       10.1994      797.4817      807.6811     434.289796       0.63330
  37     133.1      373.0135       12.2562      793.5510      805.8072     432.793710       0.53726
  36     156.8      372.6144       14.2267      789.8548      804.0815     431.467102       0.47042
  35     180.6      372.1467       16.2909      786.0084      802.2993     430.152647       0.46666
  34     202.8      371.6538       18.2507      782.2124      800.4631     428.809237       0.51007
  33     228.4      371.1314       20.2205      778.0467      798.2672     427.135765       0.55214
  32     252.2      370.5978       22.1663      773.4741      795.6404     425.042637       0.74297
  31     276.0      370.0617       24.0616      768.4389      792.5005     422.438754       0.92427
  30     299.8      369.5180       25.9440      762.7642      788.7082     419.190173       1.15311
  29     323.5      368.9780       27.8024      756.6288      784.4312     415.453205       1.32647
  28     347.3      368.4513       29.6173      750.2254      779.8428     411.391485       1.44174
  27     371.1      367.9410       31.3834      743.7251      775.1085     407.167479       1.49935
  26     394.9      367.4373       33.1481      736.8957      770.0438     402.606504       1.61896
  25     418.6      366.9530       34.8827      729.8721      764.7548     397.801758       1.70549
  24     442.4      366.4919       36.5904      722.6783      759.2687     392.776776       1.78366
  23     466.2      366.0546       38.2774      715.4381      753.7155     387.660881       1.81593
  22     489.9      365.6526       39.9211      708.2772      748.1983     382.545756       1.81566
  21     513.7      365.2865       41.5505      701.0441      742.5945     377.308014       1.85918
  20     537.5      364.9709       43.1409      693.8325      736.9734     372.002506       1.88324
  19     561.3      364.7137       44.6960      686.6319      731.3279     366.614151       1.91264
  18     585.0      364.5152       46.2496      679.3701      725.6197     361.104537       1.95569
  17     608.8      364.3868       47.7655      672.2525      720.0180     355.631214       1.94280
  16     632.6      364.3393       49.2450      665.2624      714.5074     350.168156       1.93916
  15     656.4      364.3949       50.7187      658.1915      708.9101     344.515215       2.00656
  14     680.1      364.5854       52.1568      651.1209      703.2778     338.692352       2.06688
  13     703.9      364.9401       53.5605      644.0582      697.6187     332.678607       2.13463
  12     727.7      365.5118       54.9509      636.8758      691.8268     326.315009       2.25882
  11     751.5      366.3878       56.3272      629.4911      685.8183     319.430427       2.44374
  10     775.2      367.6599       57.6722      621.9804      679.6526     311.992633       2.64011
   9     799.0      369.4739       58.9862      614.3441      673.3303     303.856453       2.88801
   8     822.8      276.3966      242.4011      329.8948      572.2959     295.899259       2.82448
   7     846.6      189.5501      301.9516      177.2124      479.1640     289.613883       2.23105
   6     870.4      106.2466      295.9330       95.2246      391.1575     284.910886       1.66937
   5     894.1       24.8379      255.3423       51.1830      306.5253     281.687343       1.14422
   4     917.9       24.3777      253.0019       50.5950      303.5969     279.219191       0.87609
   3     941.7       23.9257      250.7174       50.0184      300.7359     276.810160       0.85511
   2     965.5       23.4872      248.4964       49.4563      297.9526     274.465453       0.83227
   1     989.2       23.0644      246.3334       48.9082      295.2416     272.177217       0.81206
   0    1013.0       22.6603      244.2234       48.3729      292.5963     269.936021       0.79570



 Wavenumbers:  2600. -  3250. cm-1, ATM      1
 LEVEL PRESSURE   UPWARD FLUX   DIFDOWN FLUX  DIRDOWN FLUX  DOWNWARD FLUX   NET FLUX    HEATING RATE
          mb          W/m2          W/m2          W/m2        W/m2          W/m2       degree/day
  60   .000300        1.6077        0.0000        7.3841        7.3841       5.776398       0.00000
  59    0.1000        1.6077        0.0000        7.3840        7.3840       5.776325       0.00613
  58    0.1403        1.6077        0.0000        7.3840        7.3840       5.776296       0.00614
  57    0.1968        1.6077        0.0000        7.3839        7.3839       5.776255       0.00616
  56    0.2760        1.6077        0.0000        7.3839        7.3839       5.776197       0.00613
  55    0.3871        1.6077        0.0000        7.3838        7.3838       5.776113       0.00642
  54    0.5430        1.6077        0.0000        7.3837        7.3837       5.775988       0.00678
  53    0.7617        1.6077        0.0000        7.3835        7.3835       5.775790       0.00761
  52     1.069        1.6077        0.0000        7.3831        7.3831       5.775460       0.00908
  51     1.499        1.6077        0.0000        7.3825        7.3825       5.774852       0.01193
  50     2.102        1.6077        0.0000        7.3814        7.3814       5.773763       0.01522
  49     2.949        1.6077        0.0000        7.3795        7.3795       5.771877       0.01880
  48     4.137        1.6077        0.0000        7.3765        7.3765       5.768863       0.02142
  47     5.803        1.6077        0.0000        7.3721        7.3721       5.764432       0.02245
  46     8.139        1.6077        0.0000        7.3661        7.3661       5.758424       0.02170
  45     11.42        1.6077        0.0000        7.3586        7.3586       5.750916       0.01933
  44     16.01        1.6077        0.0000        7.3500        7.3500       5.742338       0.01575
  43     22.46        1.6077        0.0000        7.3407        7.3407       5.733018       0.01220
  42     31.51        1.6077        0.0000        7.3297        7.3297       5.722043       0.01024
  41     44.20        1.6077        0.0000        7.3134        7.3134       5.705672       0.01089
  40     62.00        1.6078        0.0000        7.2860        7.2860       5.678222       0.01301
  39     85.78        1.6079        0.0000        7.2438        7.2439       5.635949       0.01501
  38     109.5        1.6081        0.0000        7.1969        7.1970       5.588843       0.01672
  37     133.1        1.6083        0.0001        7.1517        7.1518       5.543479       0.01629
  36     156.8        1.6086        0.0001        7.1092        7.1093       5.500736       0.01516
  35     180.6        1.6089        0.0001        7.0662        7.0663       5.457406       0.01538
  34     202.8        1.6092        0.0001        7.0262        7.0262       5.416999       0.01534
  33     228.4        1.6098        0.0001        6.9846        6.9847       5.374928       0.01388
  32     252.2        1.6106        0.0001        6.9407        6.9408       5.330202       0.01588
  31     276.0        1.6116        0.0001        6.8941        6.8942       5.282642       0.01688
  30     299.8        1.6130        0.0001        6.8424        6.8426       5.229623       0.01882
  29     323.5        1.6147        0.0001        6.7849        6.7851       5.170377       0.02103
  28     347.3        1.6169        0.0001        6.7206        6.7208       5.103883       0.02360
  27     371.1        1.6195        0.0002        6.6496        6.6497       5.030200       0.02615
  26     394.9        1.6228        0.0002        6.5676        6.5677       4.944934       0.03027
  25     418.6        1.6268        0.0002        6.4741        6.4743       4.847529       0.03457
  24     442.4        1.6315        0.0002        6.3671        6.3673       4.735785       0.03966
  23     466.2        1.6371        0.0002        6.2486        6.2487       4.611581       0.04409
  22     489.9        1.6437        0.0002        6.1205        6.1207       4.476937       0.04779
  21     513.7        1.6516        0.0002        5.9812        5.9814       4.329798       0.05223
  20     537.5        1.6609        0.0002        5.8338        5.8340       4.173137       0.05561
  19     561.3        1.6718        0.0002        5.6819        5.6821       4.010270       0.05781
  18     585.0        1.6846        0.0002        5.5274        5.5276       3.842988       0.05938
  17     608.8        1.6994        0.0002        5.3761        5.3763       3.676919       0.05895
  16     632.6        1.7162        0.0002        5.2281        5.2283       3.512063       0.05852
  15     656.4        1.7363        0.0002        5.0791        5.0793       3.342975       0.06002
  14     680.1        1.7602        0.0002        4.9299        4.9301       3.169927       0.06143
  13     703.9        1.7886        0.0002        4.7798        4.7800       2.991356       0.06339
  12     727.7        1.8236        0.0002        4.6253        4.6255       2.801884       0.06725
  11     751.5        1.8677        0.0002        4.4633        4.4635       2.595747       0.07317
  10     775.2        1.9237        0.0002        4.2949        4.2951       2.371366       0.07965
   9     799.0        1.9960        0.0002        4.1205        4.1207       2.124714       0.08755
   8     822.8        1.4369        1.1763        2.1440        3.3204       1.883488       0.08563
   7     846.6        0.9490        1.5275        1.1158        2.6433       1.694303       0.06715
   6     870.4        0.5057        1.4793        0.5811        2.0604       1.554626       0.04958
   5     894.1        0.0854        1.2428        0.3028        1.5456       1.460231       0.03351
   4     917.9        0.0877        1.1867        0.2903        1.4770       1.389241       0.02520
   3     941.7        0.0904        1.1335        0.2783        1.4118       1.321438       0.02407
   2     965.5        0.0935        1.0832        0.2669        1.3501       1.256539       0.02304
   1     989.2        0.0971        1.0353        0.2560        1.2913       1.194208       0.02212
   0    1013.0        0.1014        0.9897        0.2456        1.2353       1.133931       0.02140



 Wavenumbers:  3250. -  4000. cm-1, ATM      1
 LEVEL PRESSURE   UPWARD FLUX   DIFDOWN FLUX  DIRDOWN FLUX  DOWNWARD FLUX   NET FLUX    HEATING RATE
          mb          W/m2          W/m2          W/m2        W/m2          W/m2       degree/day
  60   .000300        0.0192        0.0000       12.4485       12.4485      12.429213       0.00000
  59    0.1000        0.0192        0.0000       12.4290       12.4290      12.409711       1.65079
  58    0.1403        0.0192        0.0000       12.4252       12.4252      12.405997       0.77776
  57    0.1968        0.0192        0.0000       12.4208       12.4208      12.401524       0.66803
  56    0.2760        0.0192        0.0000       12.4156       12.4156      12.396362       0.55013
  55    0.3871        0.0192        0.0000       12.4096       12.4096      12.390329       0.45825
  54    0.5430        0.0192        0.0000       12.4022       12.4022      12.383001       0.39669
  53    0.7617        0.0192        0.0000       12.3928       12.3928      12.373540       0.36506
  52     1.069        0.0192        0.0000       12.3807       12.3807      12.361500       0.33119
  51     1.499        0.0192        0.0000       12.3664       12.3664      12.347142       0.28159
  50     2.102        0.0192        0.0000       12.3498       12.3498      12.330509       0.23256
  49     2.949        0.0192        0.0000       12.3302       12.3302      12.310974       0.19473
  48     4.137        0.0192        0.0000       12.3067       12.3068      12.287509       0.16675
  47     5.803        0.0192        0.0000       12.2766       12.2766      12.257391       0.15257
  46     8.139        0.0192        0.0000       12.2347       12.2348      12.215523       0.15121
  45     11.42        0.0192        0.0000       12.1733       12.1733      12.154109       0.15812
  44     16.01        0.0192        0.0000       12.0830       12.0830      12.063798       0.16577
  43     22.46        0.0192        0.0000       11.9527       11.9527      11.933508       0.17049
  42     31.51        0.0192        0.0000       11.7748       11.7748      11.755623       0.16594
  41     44.20        0.0192        0.0001       11.5551       11.5552      11.535986       0.14607
  40     62.00        0.0192        0.0001       11.3050       11.3051      11.285918       0.11856
  39     85.78        0.0191        0.0001       11.0142       11.0143      10.995131       0.10322
  38     109.5        0.0191        0.0001       10.7175       10.7176      10.698510       0.10529
  37     133.1        0.0191        0.0002       10.4459       10.4460      10.426963       0.09752
  36     156.8        0.0191        0.0002       10.1944       10.1946      10.175575       0.08914
  35     180.6        0.0190        0.0002        9.9218        9.9220       9.903016       0.09676
  34     202.8        0.0190        0.0002        9.5970        9.5973       9.578245       0.12331
  33     228.4        0.0190        0.0002        9.1820        9.1823       9.163304       0.13690
  32     252.2        0.0190        0.0003        8.7004        8.7006       8.681656       0.17097
  31     276.0        0.0190        0.0003        8.1693        8.1695       8.150568       0.18851
  30     299.8        0.0190        0.0003        7.5886        7.5889       7.569891       0.20612
  29     323.5        0.0190        0.0003        6.9823        6.9825       6.963518       0.21524
  28     347.3        0.0191        0.0003        6.3629        6.3631       6.344038       0.21989
  27     371.1        0.0192        0.0002        5.7699        5.7701       5.750966       0.21052
  26     394.9        0.0193        0.0002        5.2041        5.2043       5.184988       0.20090
  25     418.6        0.0195        0.0002        4.6962        4.6964       4.676878       0.18036
  24     442.4        0.0198        0.0002        4.2409        4.2411       4.221336       0.16170
  23     466.2        0.0201        0.0002        3.8328        3.8330       3.812818       0.14501
  22     489.9        0.0206        0.0002        3.4648        3.4650       3.444423       0.13077
  21     513.7        0.0212        0.0002        3.1218        3.1220       3.100750       0.12199
  20     537.5        0.0220        0.0002        2.8040        2.8042       2.782126       0.11310
  19     561.3        0.0231        0.0002        2.5083        2.5084       2.485317       0.10536
  18     585.0        0.0245        0.0001        2.2301        2.2302       2.205752       0.09923
  17     608.8        0.0262        0.0001        1.9731        1.9732       1.946992       0.09185
  16     632.6        0.0284        0.0001        1.7337        1.7338       1.705409       0.08575
  15     656.4        0.0314        0.0001        1.5041        1.5042       1.472815       0.08256
  14     680.1        0.0354        0.0001        1.2888        1.2888       1.253439       0.07787
  13     703.9        0.0409        0.0001        1.0908        1.0909       1.049970       0.07222
  12     727.7        0.0487        0.0001        0.9082        0.9083       0.859568       0.06758
  11     751.5        0.0604        0.0001        0.7390        0.7391       0.678696       0.06420
  10     775.2        0.0784        0.0000        0.5856        0.5857       0.507257       0.06085
   9     799.0        0.1076        0.0000        0.4484        0.4484       0.340850       0.05907
   8     822.8        0.0564        0.0781        0.1790        0.2571       0.200772       0.04972
   7     846.6        0.0275        0.0710        0.0696        0.1406       0.113025       0.03115
   6     870.4        0.0110        0.0468        0.0263        0.0731       0.062049       0.01809
   5     894.1        0.0000        0.0259        0.0096        0.0355       0.035464       0.00944
   4     917.9        0.0000        0.0151        0.0062        0.0213       0.021296       0.00503
   3     941.7        0.0000        0.0083        0.0038        0.0122       0.012137       0.00325
   2     965.5        0.0000        0.0043        0.0023        0.0066       0.006553       0.00198
   1     989.2        0.0001        0.0021        0.0013        0.0034       0.003307       0.00115
   0    1013.0        0.0002        0.0010        0.0007        0.0017       0.001462       0.00065



 Wavenumbers:  4000. -  4650. cm-1, ATM      1
 LEVEL PRESSURE   UPWARD FLUX   DIFDOWN FLUX  DIRDOWN FLUX  DOWNWARD FLUX   NET FLUX    HEATING RATE
          mb          W/m2          W/m2          W/m2        W/m2          W/m2       degree/day
  60   .000300        5.3837        0.0000       14.6183       14.6183       9.234543       0.00000
  59    0.1000        5.3837        0.0000       14.6182       14.6182       9.234534       0.00076
  58    0.1403        5.3837        0.0000       14.6182       14.6182       9.234530       0.00077
  57    0.1968        5.3837        0.0000       14.6182       14.6182       9.234525       0.00077
  56    0.2760        5.3837        0.0000       14.6182       14.6182       9.234518       0.00076
  55    0.3871        5.3837        0.0000       14.6182       14.6182       9.234507       0.00080
  54    0.5430        5.3837        0.0000       14.6182       14.6182       9.234492       0.00085
