

 Wavenumbers:   820. - 50000. cm-1, ATM      1
 LEVEL PRESSURE   UPWARD FLUX   DIFDOWN FLUX  DIRDOWN FLUX  DOWNWARD FLUX   NET FLUX    HEATING RATE
          mb          W/m2          W/m2          W/m2        W/m2          W/m2       degree/day
  60   .000300      114.4790        0.0000      837.8224      837.8224     723.343346       0.00000
  59    0.1000      114.4727        0.0100      837.7137      837.7236     723.250933       7.82234
  58    0.1403      114.4703        0.0140      837.6563      837.6703     723.200000      10.66583
  57    0.1968      114.4670        0.0196      837.5614      837.5810     723.113946      12.85350
  56    0.2760      114.4627        0.0274      837.4070      837.4344     722.971720      15.15481
  55    0.3871      114.4569        0.0383      837.1641      837.2023     722.745436      17.18852
  54    0.5430      114.4493        0.0532      836.7876      836.8409     722.391598      19.15392
  53    0.7617      114.4396        0.0737      836.1942      836.2679     721.828244      21.73855
  52     1.069      114.4279        0.1017      835.2926      835.3943     720.966390      23.70703
  51     1.499      114.4149        0.1391      834.0471      834.1862     719.771305      23.43829
  50     2.102      114.4030        0.1893      832.4995      832.6888     718.285756      20.76999
  49     2.949      114.3970        0.2592      830.7483      831.0075     716.610480      16.69961
  48     4.137      114.4028        0.3562      828.8944      829.2506     714.847869      12.52520
  47     5.803      114.4214        0.4907      826.9459      827.4366     713.015193       9.28400
  46     8.139      114.4460        0.6775      824.8978      825.5754     711.129322       6.81095
  45     11.42      114.4631        0.9372      822.7006      823.6377     709.174593       5.03272
  44     16.01      114.4593        1.2971      820.2525      821.5496     707.090266       3.82581
  43     22.46      114.4166        1.7970      817.4463      819.2433     704.826737       2.96191
  42     31.51      114.2888        2.4909      814.2518      816.7427     702.453892       2.21354
  41     44.20      113.9941        3.4558      810.6480      814.1037     700.109616       1.55903
  40     62.00      113.4595        4.7840      806.4553      811.2393     697.779846       1.10458
  39     85.78      112.5832        6.5309      801.7674      808.2983     695.715149       0.73288
  38     109.5      111.6051        8.2758      797.4817      805.7575     694.152361       0.55473
  37     133.1      110.6411        9.9214      793.5510      803.4723     692.831216       0.47444
  36     156.8      109.6916       11.4910      789.8548      801.3458     691.654174       0.41738
  35     180.6      108.6660       13.1282      786.0084      799.1366     690.470643       0.42018
  34     202.8      107.6622       14.6759      782.2124      796.8882     689.226083       0.47253
  33     228.4      106.6306       16.2245      778.0467      794.2712     687.640617       0.52310
  32     252.2      105.5921       17.7474      773.4741      791.2215     685.629396       0.71390
  31     276.0      104.5616       19.2238      768.4389      787.6627     683.101070       0.89745
  30     299.8      103.5205       20.6833      762.7642      783.4475     679.927064       1.12664
  29     323.5      102.4770       22.1173      756.6288      778.7460     676.269061       1.29844
  28     347.3      101.4434       23.5107      750.2254      773.7361     672.292724       1.41144
  27     371.1      100.4238       24.8600      743.7251      768.5850     668.161221       1.46651
  26     394.9       99.3916       26.2013      736.8957      763.0970     663.705462       1.58161
  25     418.6       98.3643       27.5128      729.8721      757.3850     659.020649       1.66292
  24     442.4       97.3411       28.7971      722.6783      751.4754     654.134288       1.73446
  23     466.2       96.3189       30.0589      715.4381      745.4970     649.178145       1.75923
  22     489.9       95.3125       31.2816      708.2772      739.5587     644.246274       1.75061
  21     513.7       94.3058       32.4866      701.0441      733.5307     639.224873       1.78239
  20     537.5       93.3155       33.6560      693.8325      727.4885     634.172961       1.79322
  19     561.3       92.3413       34.7926      686.6319      721.4245     629.083187       1.80666
  18     585.0       91.3628       35.9213      679.3701      715.2914     623.928571       1.82968
  17     608.8       90.4039       37.0158      672.2525      709.2683     618.864378       1.79758
  16     632.6       89.4658       38.0773      665.2624      703.3397     613.873860       1.77143
  15     656.4       88.5327       39.1278      658.1915      697.3193     608.786559       1.80578
  14     680.1       87.6280       40.1462      651.1209      691.2671     603.639160       1.82711
  13     703.9       86.7555       41.1333      644.0582      685.1915     598.436047       1.84689
  12     727.7       85.9088       42.1043      636.8758      678.9801     593.071325       1.90426
  11     751.5       85.1002       43.0582      629.4911      672.5493     587.449096       1.99566
  10     775.2       84.3532       43.9833      621.9804      665.9637     581.610407       2.07249
   9     799.0       83.6868       44.8798      614.3441      659.2239     575.537112       2.15577
   8     822.8       71.3743       58.2439      582.4779      640.7217     569.347389       2.19710
   7     846.6       59.1603       70.3653      552.4440      622.8094     563.649110       2.02265
   6     870.4       47.0217       81.2252      524.1425      605.3677     558.345941       1.88241
   5     894.1       34.9416       90.9156      497.4506      588.3662     553.424618       1.74687
   4     917.9       34.0301       91.0134      491.7362      582.7496     548.719500       1.67012
   3     941.7       33.1311       91.1113      486.1324      577.2437     544.112604       1.63526
   2     965.5       32.2543       91.2061      480.6692      571.8754     539.621027       1.59432
   1     989.2       31.4034       91.2969      475.3422      566.6391     535.235747       1.55627
   0    1013.0       30.5835       91.3826      470.1398      561.5224     530.938886       1.52553



 Wavenumbers:  2600. -  3250. cm-1, ATM      1
 LEVEL PRESSURE   UPWARD FLUX   DIFDOWN FLUX  DIRDOWN FLUX  DOWNWARD FLUX   NET FLUX    HEATING RATE
          mb          W/m2          W/m2          W/m2        W/m2          W/m2       degree/day
  60   .000300        0.2729        0.0000        7.3841        7.3841       7.111218       0.00000
  59    0.1000        0.2729        0.0000        7.3840        7.3840       7.111145       0.00613
  58    0.1403        0.2729        0.0000        7.3840        7.3840       7.111116       0.00614
  57    0.1968        0.2729        0.0000        7.3839        7.3839       7.111075       0.00616
  56    0.2760        0.2729        0.0000        7.3839        7.3839       7.111017       0.00613
  55    0.3871        0.2729        0.0000        7.3838        7.3838       7.110933       0.00641
  54    0.5430        0.2729        0.0000        7.3837        7.3837       7.110807       0.00678
  53    0.7617        0.2729        0.0000        7.3835        7.3835       7.110610       0.00761
  52     1.069        0.2729        0.0000        7.3831        7.3831       7.110280       0.00908
  51     1.499        0.2729        0.0000        7.3825        7.3825       7.109672       0.01193
  50     2.102        0.2729        0.0000        7.3814        7.3814       7.108583       0.01522
  49     2.949        0.2729        0.0000        7.3795        7.3795       7.106697       0.01880
  48     4.137        0.2729        0.0000        7.3765        7.3765       7.103683       0.02142
  47     5.803        0.2729        0.0000        7.3721        7.3721       7.099253       0.02245
  46     8.139        0.2729        0.0000        7.3661        7.3661       7.093246       0.02169
  45     11.42        0.2728        0.0000        7.3586        7.3586       7.085740       0.01932
  44     16.01        0.2728        0.0000        7.3500        7.3500       7.077166       0.01574
  43     22.46        0.2728        0.0000        7.3407        7.3407       7.067853       0.01219
  42     31.51        0.2728        0.0000        7.3297        7.3297       7.056894       0.01022
  41     44.20        0.2728        0.0000        7.3134        7.3134       7.040553       0.01087
  40     62.00        0.2729        0.0000        7.2860        7.2860       7.013167       0.01298
  39     85.78        0.2729        0.0000        7.2438        7.2439       6.971011       0.01496
  38     109.5        0.2729        0.0000        7.1969        7.1969       6.924062       0.01667
  37     133.1        0.2729        0.0000        7.1517        7.1518       6.878882       0.01622
  36     156.8        0.2729        0.0001        7.1092        7.1093       6.836351       0.01508
  35     180.6        0.2730        0.0001        7.0662        7.0663       6.793287       0.01529
  34     202.8        0.2730        0.0001        7.0262        7.0262       6.753203       0.01522
  33     228.4        0.2731        0.0001        6.9846        6.9847       6.711599       0.01373
  32     252.2        0.2732        0.0001        6.9407        6.9408       6.667547       0.01564
  31     276.0        0.2734        0.0001        6.8941        6.8942       6.620852       0.01657
  30     299.8        0.2736        0.0001        6.8424        6.8426       6.568973       0.01841
  29     323.5        0.2738        0.0001        6.7849        6.7850       6.511198       0.02051
  28     347.3        0.2742        0.0001        6.7206        6.7207       6.446558       0.02294
  27     371.1        0.2746        0.0001        6.6496        6.6497       6.375123       0.02536
  26     394.9        0.2751        0.0001        6.5676        6.5677       6.292638       0.02928
  25     418.6        0.2757        0.0001        6.4741        6.4743       6.198584       0.03339
  24     442.4        0.2764        0.0001        6.3671        6.3673       6.090885       0.03823
  23     466.2        0.2772        0.0002        6.2486        6.2487       5.971452       0.04239
  22     489.9        0.2782        0.0002        6.1205        6.1206       5.842386       0.04581
  21     513.7        0.2794        0.0002        5.9812        5.9813       5.701923       0.04986
  20     537.5        0.2808        0.0002        5.8338        5.8340       5.553169       0.05280
  19     561.3        0.2825        0.0002        5.6819        5.6820       5.399587       0.05452
  18     585.0        0.2844        0.0002        5.5274        5.5276       5.243224       0.05550
  17     608.8        0.2866        0.0002        5.3761        5.3762       5.089672       0.05450
  16     632.6        0.2891        0.0002        5.2281        5.2283       4.939198       0.05341
  15     656.4        0.2920        0.0002        5.0791        5.0793       4.787227       0.05394
  14     680.1        0.2955        0.0002        4.9299        4.9300       4.634512       0.05421
  13     703.9        0.2997        0.0002        4.7798        4.7799       4.480266       0.05475
  12     727.7        0.3047        0.0002        4.6253        4.6254       4.320703       0.05664
  11     751.5        0.3111        0.0002        4.4633        4.4634       4.152368       0.05975
  10     775.2        0.3190        0.0002        4.2949        4.2950       3.976003       0.06260
   9     799.0        0.3292        0.0002        4.1205        4.1207       3.791536       0.06548
   8     822.8        0.2645        0.0821        3.7858        3.8679       3.603343       0.06680
   7     846.6        0.2016        0.1516        3.4789        3.6305       3.428879       0.06193
   6     870.4        0.1400        0.2101        3.1992        3.4093       3.269303       0.05664
   5     894.1        0.0789        0.2582        2.9444        3.2025       3.123589       0.05172
   4     917.9        0.0812        0.2458        2.8227        3.0684       2.987209       0.04841
   3     941.7        0.0839        0.2341        2.7060        2.9402       2.856312       0.04646
   2     965.5        0.0870        0.2232        2.5948        2.8180       2.731059       0.04446
   1     989.2        0.0906        0.2130        2.4890        2.7020       2.611339       0.04249
   0    1013.0        0.0950        0.2032        2.3876        2.5909       2.495907       0.04098



 Wavenumbers:  3250. -  4000. cm-1, ATM      1
 LEVEL PRESSURE   UPWARD FLUX   DIFDOWN FLUX  DIRDOWN FLUX  DOWNWARD FLUX   NET FLUX    HEATING RATE
          mb          W/m2          W/m2          W/m2        W/m2          W/m2       degree/day
  60   .000300        0.0025        0.0000       12.4485       12.4485      12.445998       0.00000
  59    0.1000        0.0025        0.0000       12.4290       12.4290      12.426496       1.65079
  58    0.1403        0.0025        0.0000       12.4252       12.4252      12.422781       0.77776
  57    0.1968        0.0025        0.0000       12.4208       12.4208      12.418309       0.66803
  56    0.2760        0.0025        0.0000       12.4156       12.4156      12.413146       0.55013
  55    0.3871        0.0025        0.0000       12.4096       12.4096      12.407113       0.45825
  54    0.5430        0.0025        0.0000       12.4022       12.4022      12.399785       0.39669
  53    0.7617        0.0025        0.0000       12.3928       12.3928      12.390325       0.36506
  52     1.069        0.0025        0.0000       12.3807       12.3807      12.378284       0.33119
  51     1.499        0.0025        0.0000       12.3664       12.3664      12.363927       0.28159
  50     2.102        0.0025        0.0000       12.3498       12.3498      12.347293       0.23256
  49     2.949        0.0025        0.0000       12.3302       12.3302      12.327758       0.19473
  48     4.137        0.0025        0.0000       12.3067       12.3068      12.304293       0.16675
  47     5.803        0.0025        0.0000       12.2766       12.2766      12.274175       0.15257
  46     8.139        0.0025        0.0000       12.2347       12.2348      12.232307       0.15121
  45     11.42        0.0024        0.0000       12.1733       12.1733      12.170894       0.15812
  44     16.01        0.0024        0.0000       12.0830       12.0830      12.080583       0.16577
  43     22.46        0.0024        0.0000       11.9527       11.9527      11.950293       0.17049
  42     31.51        0.0024        0.0000       11.7748       11.7748      11.772408       0.16594
  41     44.20        0.0024        0.0001       11.5551       11.5552      11.552771       0.14607
  40     62.00        0.0024        0.0001       11.3050       11.3051      11.302703       0.11856
  39     85.78        0.0024        0.0001       11.0142       11.0143      11.011915       0.10322
  38     109.5        0.0023        0.0001       10.7175       10.7176      10.715295       0.10529
  37     133.1        0.0023        0.0002       10.4459       10.4460      10.443749       0.09752
  36     156.8        0.0023        0.0002       10.1944       10.1946      10.192361       0.08914
  35     180.6        0.0022        0.0002        9.9218        9.9220       9.919803       0.09676
  34     202.8        0.0022        0.0002        9.5970        9.5973       9.595033       0.12331
  33     228.4        0.0022        0.0002        9.1820        9.1823       9.180096       0.13690
  32     252.2        0.0022        0.0003        8.7004        8.7006       8.698455       0.17096
  31     276.0        0.0022        0.0003        8.1693        8.1695       8.167381       0.18851
  30     299.8        0.0021        0.0003        7.5886        7.5889       7.586729       0.20611
  29     323.5        0.0021        0.0003        6.9823        6.9825       6.980399       0.21522
  28     347.3        0.0021        0.0003        6.3629        6.3631       6.360985       0.21987
  27     371.1        0.0021        0.0002        5.7699        5.7701       5.768007       0.21048
  26     394.9        0.0021        0.0002        5.2041        5.2043       5.202164       0.20085
  25     418.6        0.0021        0.0002        4.6962        4.6964       4.694242       0.18029
  24     442.4        0.0022        0.0002        4.2409        4.2411       4.238954       0.16161
  23     466.2        0.0022        0.0002        3.8328        3.8330       3.830771       0.14489
  22     489.9        0.0022        0.0002        3.4648        3.4650       3.462805       0.13061
  21     513.7        0.0023        0.0002        3.1218        3.1220       3.119698       0.12179
  20     537.5        0.0024        0.0002        2.8040        2.8042       2.801805       0.11284
  19     561.3        0.0025        0.0002        2.5083        2.5084       2.505940       0.10502
  18     585.0        0.0026        0.0001        2.2301        2.2302       2.227605       0.09880
  17     608.8        0.0028        0.0001        1.9731        1.9732       1.970404       0.09130
  16     632.6        0.0030        0.0001        1.7337        1.7338       1.730814       0.08504
  15     656.4        0.0033        0.0001        1.5041        1.5042       1.500876       0.08162
  14     680.1        0.0038        0.0001        1.2888        1.2888       1.285081       0.07660
  13     703.9        0.0043        0.0001        1.0908        1.0908       1.086502       0.07049
  12     727.7        0.0052        0.0001        0.9082        0.9083       0.903076       0.06511
  11     751.5        0.0064        0.0001        0.7390        0.7391       0.732655       0.06049
  10     775.2        0.0083        0.0000        0.5856        0.5857       0.577345       0.05513
   9     799.0        0.0114        0.0000        0.4484        0.4484       0.437015       0.04981
   8     822.8        0.0073        0.0065        0.3161        0.3226       0.315267       0.04322
   7     846.6        0.0043        0.0086        0.2169        0.2255       0.221123       0.03342
   6     870.4        0.0020        0.0083        0.1446        0.1529       0.150842       0.02495
   5     894.1        0.0000        0.0068        0.0933        0.1002       0.100159       0.01799
   4     917.9        0.0000        0.0040        0.0603        0.0643       0.064269       0.01274
   3     941.7        0.0000        0.0022        0.0372        0.0394       0.039367       0.00884
   2     965.5        0.0001        0.0011        0.0219        0.0231       0.022998       0.00581
   1     989.2        0.0001        0.0006        0.0123        0.0128       0.012738       0.00364
   0    1013.0        0.0002        0.0003        0.0065        0.0068       0.006559       0.00219



 Wavenumbers:  4000. -  4650. cm-1, ATM      1
 LEVEL PRESSURE   UPWARD FLUX   DIFDOWN FLUX  DIRDOWN FLUX  DOWNWARD FLUX   NET FLUX    HEATING RATE
          mb          W/m2          W/m2          W/m2        W/m2          W/m2       degree/day
  60   .000300        0.9810        0.0000       14.6183       14.6183      13.637258       0.00000
  59    0.1000        0.9810        0.0000       14.6182       14.6182      13.637249       0.00076
  58    0.1403        0.9810        0.0000       14.6182       14.6182      13.637246       0.00076
  57    0.1968        0.9810        0.0000       14.6182       14.6182      13.637241       0.00077
  56    0.2760        0.9810        0.0000       14.6182       14.6182      13.637233       0.00076
  55    0.3871        0.9810        0.0000       14.6182       14.6182      13.637223       0.00080
  54    0.5430        0.9810        0.0000       14.6182       14.6182      13.637207       0.00085
