

 Wavenumbers:   820. - 50000. cm-1, ATM      1
 LEVEL PRESSURE   UPWARD FLUX   DIFDOWN FLUX  DIRDOWN FLUX  DOWNWARD FLUX   NET FLUX    HEATING RATE
          mb          W/m2          W/m2          W/m2        W/m2          W/m2       degree/day
  60   .000300      148.7078        0.0000      837.8224      837.8224     689.114633       0.00000
  59    0.1000      148.7017        0.0102      837.7137      837.7239     689.022158       7.82758
  58    0.1403      148.6994        0.0143      837.6563      837.6706     688.971177      10.67579
  57    0.1968      148.6964        0.0200      837.5614      837.5814     688.885038      12.86624
  56    0.2760      148.6924        0.0280      837.4070      837.4350     688.742664      15.17070
  55    0.3871      148.6871        0.0391      837.1641      837.2032     688.516129      17.20756
  54    0.5430      148.6802        0.0545      836.7876      836.8421     688.161870      19.17664
  53    0.7617      148.6718        0.0754      836.1942      836.2696     687.597778      21.76708
  52     1.069      148.6621        0.1041      835.2926      835.3967     686.734598      23.74349
  51     1.499      148.6524        0.1424      834.0471      834.1895     685.537147      23.48469
  50     2.102      148.6461        0.1939      832.4995      832.6934     684.047294      20.83016
  49     2.949      148.6500        0.2657      830.7483      831.0140     682.364025      16.77930
  48     4.137      148.6721        0.3654      828.8944      829.2598     680.587650      12.62301
  47     5.803      148.7156        0.5035      826.9459      827.4495     678.733898       9.39077
  46     8.139      148.7742        0.6955      824.8978      825.5934     676.819181       6.91513
  45     11.42      148.8349        0.9624      822.7006      823.6630     674.828011       5.12654
  44     16.01      148.8860        1.3325      820.2525      821.5850     672.698955       3.90791
  43     22.46      148.9116        1.8466      817.4463      819.2929     670.381315       3.03272
  42     31.51      148.8647        2.5605      814.2518      816.8123     667.947609       2.27031
  41     44.20      148.6592        3.5536      810.6480      814.2016     665.542311       1.59962
  40     62.00      148.2232        4.9213      806.4553      811.3767     663.153460       1.13259
  39     85.78      147.4457        6.7213      801.7674      808.4886     661.042970       0.74914
  38     109.5      146.5509        8.5202      797.4817      806.0019     659.451054       0.56506
  37     133.1      145.6622       10.2181      793.5510      803.7691     658.106898       0.48270
  36     156.8      144.7833       11.8387      789.8548      801.6935     656.910192       0.42435
  35     180.6      143.8291       13.5302      786.0084      799.5385     655.709450       0.42629
  34     202.8      142.8907       15.1302      782.2124      797.3425     654.451890       0.47747
  33     228.4      141.9242       16.7323      778.0467      794.7790     652.854848       0.52692
  32     252.2      140.9502       18.3089      773.4741      791.7830     650.832853       0.71773
  31     276.0      139.9829       19.8386      768.4389      788.2774     648.294582       0.90098
  30     299.8      139.0052       21.3518      762.7642      784.1160     645.110758       1.13013
  29     323.5      138.0261       22.8397      756.6288      779.4684     641.442358       1.30213
  28     347.3      137.0573       24.2867      750.2254      774.5121     637.454781       1.41543
  27     371.1      136.1028       25.6888      743.7251      769.4139     633.311104       1.47083
  26     394.9      135.1382       27.0840      736.8957      763.9797     628.841501       1.58652
  25     418.6      134.1804       28.4492      729.8721      758.3214     624.140916       1.66851
  24     442.4      133.2292       29.7873      722.6783      752.4656     619.236334       1.74092
  23     466.2      132.2820       31.1031      715.4381      746.5412     614.259204       1.76668
  22     489.9      131.3532       32.3793      708.2772      740.6564     609.303270       1.75915
  21     513.7      130.4288       33.6382      701.0441      734.6822     604.253478       1.79247
  20     537.5      129.5252       34.8611      693.8325      728.6935     599.168308       1.80503
  19     561.3      128.6433       36.0508      686.6319      722.6827     594.039404       1.82055
  18     585.0      127.7653       37.2335      679.3701      716.6036     588.838304       1.84618
  17     608.8      126.9134       38.3815      672.2525      710.6340     583.720593       1.81658
  16     632.6      126.0902       39.4961      665.2624      704.7585     578.668335       1.79334
  15     656.4      125.2846       40.6004      658.1915      698.7918     573.507236       1.83198
  14     680.1      124.5211       41.6720      651.1209      692.7930     568.271860       1.85834
  13     703.9      123.8069       42.7121      644.0582      686.7703     562.963384       1.88429
  12     727.7      123.1430       43.7363      636.8758      680.6121     557.469167       1.95022
  11     751.5      122.5511       44.7438      629.4911      674.2349     551.683850       2.05355
  10     775.2      122.0631       45.7222      621.9804      667.7026     545.639537       2.14548
   9     799.0      121.7131       46.6717      614.3441      661.0158     539.302765       2.24929
   8     822.8       99.4704       73.0610      559.2914      632.3523     532.881900       2.27914
   7     846.6       77.4859       95.2101      509.3230      604.5332     527.047311       2.07104
   6     870.4       55.7144      113.4934      464.0032      577.4966     521.782244       1.86888
   5     894.1       34.1019      128.3124      422.8401      551.1524     517.050567       1.67955
   4     917.9       33.2518      127.8890      417.9828      545.8718     512.620080       1.57264
   3     941.7       32.4138      127.4800      413.2196      540.6996     508.285801       1.53849
   2     965.5       31.5972      127.0839      408.5759      535.6597     504.062563       1.49908
   1     989.2       30.8054      126.6983      404.0479      530.7462     499.940844       1.46273
   0    1013.0       30.0434      126.3210      399.6259      525.9469     495.903519       1.43339



 Wavenumbers:  2600. -  3250. cm-1, ATM      1
 LEVEL PRESSURE   UPWARD FLUX   DIFDOWN FLUX  DIRDOWN FLUX  DOWNWARD FLUX   NET FLUX    HEATING RATE
          mb          W/m2          W/m2          W/m2        W/m2          W/m2       degree/day
  60   .000300        0.4520        0.0000        7.3841        7.3841       6.932112       0.00000
  59    0.1000        0.4520        0.0000        7.3840        7.3840       6.932040       0.00613
  58    0.1403        0.4520        0.0000        7.3840        7.3840       6.932011       0.00614
  57    0.1968        0.4520        0.0000        7.3839        7.3839       6.931969       0.00616
  56    0.2760        0.4520        0.0000        7.3839        7.3839       6.931912       0.00613
  55    0.3871        0.4520        0.0000        7.3838        7.3838       6.931827       0.00641
  54    0.5430        0.4520        0.0000        7.3837        7.3837       6.931702       0.00678
  53    0.7617        0.4520        0.0000        7.3835        7.3835       6.931505       0.00761
  52     1.069        0.4520        0.0000        7.3831        7.3831       6.931175       0.00908
  51     1.499        0.4520        0.0000        7.3825        7.3825       6.930567       0.01193
  50     2.102        0.4520        0.0000        7.3814        7.3814       6.929478       0.01522
  49     2.949        0.4520        0.0000        7.3795        7.3795       6.927592       0.01880
  48     4.137        0.4520        0.0000        7.3765        7.3765       6.924578       0.02142
  47     5.803        0.4520        0.0000        7.3721        7.3721       6.920147       0.02245
  46     8.139        0.4520        0.0000        7.3661        7.3661       6.914140       0.02170
  45     11.42        0.4520        0.0000        7.3586        7.3586       6.906634       0.01932
  44     16.01        0.4520        0.0000        7.3500        7.3500       6.898059       0.01574
  43     22.46        0.4520        0.0000        7.3407        7.3407       6.888746       0.01219
  42     31.51        0.4520        0.0000        7.3297        7.3297       6.877785       0.01023
  41     44.20        0.4520        0.0000        7.3134        7.3134       6.861440       0.01087
  40     62.00        0.4520        0.0000        7.2860        7.2860       6.834045       0.01299
  39     85.78        0.4520        0.0000        7.2438        7.2439       6.791875       0.01497
  38     109.5        0.4520        0.0000        7.1969        7.1969       6.744904       0.01667
  37     133.1        0.4521        0.0001        7.1517        7.1518       6.699701       0.01623
  36     156.8        0.4522        0.0001        7.1092        7.1093       6.657142       0.01509
  35     180.6        0.4522        0.0001        7.0662        7.0663       6.614043       0.01530
  34     202.8        0.4523        0.0001        7.0262        7.0262       6.573917       0.01524
  33     228.4        0.4525        0.0001        6.9846        6.9847       6.532251       0.01375
  32     252.2        0.4527        0.0001        6.9407        6.9408       6.488111       0.01567
  31     276.0        0.4529        0.0001        6.8941        6.8942       6.441301       0.01662
  30     299.8        0.4533        0.0001        6.8424        6.8426       6.389273       0.01847
  29     323.5        0.4537        0.0001        6.7849        6.7850       6.331304       0.02058
  28     347.3        0.4543        0.0001        6.7206        6.7207       6.266421       0.02303
  27     371.1        0.4550        0.0001        6.6496        6.6497       6.194691       0.02546
  26     394.9        0.4559        0.0001        6.5676        6.5677       6.111841       0.02941
  25     418.6        0.4569        0.0001        6.4741        6.4743       6.017348       0.03354
  24     442.4        0.4582        0.0001        6.3671        6.3673       5.909120       0.03842
  23     466.2        0.4596        0.0002        6.2486        6.2487       5.789063       0.04262
  22     489.9        0.4614        0.0002        6.1205        6.1206       5.659268       0.04607
  21     513.7        0.4634        0.0002        5.9812        5.9814       5.517934       0.05017
  20     537.5        0.4658        0.0002        5.8338        5.8340       5.368149       0.05317
  19     561.3        0.4687        0.0002        5.6819        5.6820       5.213358       0.05494
  18     585.0        0.4720        0.0002        5.5274        5.5276       5.055575       0.05601
  17     608.8        0.4758        0.0002        5.3761        5.3762       4.900397       0.05508
  16     632.6        0.4802        0.0002        5.2281        5.2283       4.748058       0.05407
  15     656.4        0.4854        0.0002        5.0791        5.0793       4.593870       0.05473
  14     680.1        0.4915        0.0002        4.9299        4.9300       4.438528       0.05514
  13     703.9        0.4988        0.0002        4.7798        4.7799       4.281145       0.05586
  12     727.7        0.5077        0.0002        4.6253        4.6254       4.117737       0.05800
  11     751.5        0.5189        0.0002        4.4633        4.4634       3.944556       0.06147
  10     775.2        0.5330        0.0002        4.2949        4.2950       3.762062       0.06478
   9     799.0        0.5510        0.0002        4.1205        4.1207       3.569695       0.06828
   8     822.8        0.4268        0.1509        3.6346        3.7855       3.358701       0.07489
   7     846.6        0.3081        0.2864        3.2076        3.4939       3.185797       0.06137
   6     870.4        0.1921        0.3901        2.8322        3.2223       3.030203       0.05523
   5     894.1        0.0778        0.4675        2.5031        2.9706       2.892810       0.04877
   4     917.9        0.0800        0.4467        2.3996        2.8463       2.766337       0.04489
   3     941.7        0.0826        0.4269        2.3005        2.7274       2.644792       0.04314
   2     965.5        0.0856        0.4079        2.2060        2.6139       2.528297       0.04135
   1     989.2        0.0891        0.3899        2.1160        2.5059       2.416748       0.03959
   0    1013.0        0.0934        0.3726        2.0299        2.4024       2.309068       0.03823



 Wavenumbers:  3250. -  4000. cm-1, ATM      1
 LEVEL PRESSURE   UPWARD FLUX   DIFDOWN FLUX  DIRDOWN FLUX  DOWNWARD FLUX   NET FLUX    HEATING RATE
          mb          W/m2          W/m2          W/m2        W/m2          W/m2       degree/day
  60   .000300        0.0043        0.0000       12.4485       12.4485      12.444173       0.00000
  59    0.1000        0.0043        0.0000       12.4290       12.4290      12.424671       1.65079
  58    0.1403        0.0043        0.0000       12.4252       12.4252      12.420957       0.77776
  57    0.1968        0.0043        0.0000       12.4208       12.4208      12.416484       0.66803
  56    0.2760        0.0043        0.0000       12.4156       12.4156      12.411322       0.55013
  55    0.3871        0.0043        0.0000       12.4096       12.4096      12.405289       0.45825
  54    0.5430        0.0043        0.0000       12.4022       12.4022      12.397960       0.39669
  53    0.7617        0.0043        0.0000       12.3928       12.3928      12.388500       0.36506
  52     1.069        0.0043        0.0000       12.3807       12.3807      12.376460       0.33119
  51     1.499        0.0043        0.0000       12.3664       12.3664      12.362102       0.28159
  50     2.102        0.0043        0.0000       12.3498       12.3498      12.345469       0.23256
  49     2.949        0.0043        0.0000       12.3302       12.3302      12.325934       0.19473
  48     4.137        0.0043        0.0000       12.3067       12.3068      12.302468       0.16675
  47     5.803        0.0043        0.0000       12.2766       12.2766      12.272351       0.15257
  46     8.139        0.0043        0.0000       12.2347       12.2348      12.230483       0.15121
  45     11.42        0.0043        0.0000       12.1733       12.1733      12.169069       0.15812
  44     16.01        0.0043        0.0000       12.0830       12.0830      12.078758       0.16577
  43     22.46        0.0043        0.0000       11.9527       11.9527      11.948468       0.17049
  42     31.51        0.0042        0.0000       11.7748       11.7748      11.770583       0.16594
  41     44.20        0.0042        0.0001       11.5551       11.5552      11.550946       0.14607
  40     62.00        0.0042        0.0001       11.3050       11.3051      11.300878       0.11856
  39     85.78        0.0042        0.0001       11.0142       11.0143      11.010091       0.10322
  38     109.5        0.0041        0.0001       10.7175       10.7176      10.713470       0.10529
  37     133.1        0.0041        0.0002       10.4459       10.4460      10.441924       0.09752
  36     156.8        0.0041        0.0002       10.1944       10.1946      10.190536       0.08914
  35     180.6        0.0041        0.0002        9.9218        9.9220       9.917978       0.09676
  34     202.8        0.0040        0.0002        9.5970        9.5973       9.593208       0.12331
  33     228.4        0.0040        0.0002        9.1820        9.1823       9.178271       0.13690
  32     252.2        0.0040        0.0003        8.7004        8.7006       8.696629       0.17096
  31     276.0        0.0040        0.0003        8.1693        8.1695       8.165553       0.18851
  30     299.8        0.0040        0.0003        7.5886        7.5889       7.584899       0.20611
  29     323.5        0.0040        0.0003        6.9823        6.9825       6.978564       0.21522
  28     347.3        0.0040        0.0003        6.3629        6.3631       6.359142       0.21987
  27     371.1        0.0040        0.0002        5.7699        5.7701       5.766154       0.21049
  26     394.9        0.0040        0.0002        5.2041        5.2043       5.200297       0.20086
  25     418.6        0.0040        0.0002        4.6962        4.6964       4.692354       0.18030
  24     442.4        0.0041        0.0002        4.2409        4.2411       4.237038       0.16162
  23     466.2        0.0041        0.0002        3.8328        3.8330       3.828819       0.14490
  22     489.9        0.0042        0.0002        3.4648        3.4650       3.460807       0.13063
  21     513.7        0.0043        0.0002        3.1218        3.1220       3.117638       0.12181
  20     537.5        0.0045        0.0002        2.8040        2.8042       2.799666       0.11287
  19     561.3        0.0047        0.0002        2.5083        2.5084       2.503698       0.10506
  18     585.0        0.0050        0.0001        2.2301        2.2302       2.225229       0.09884
  17     608.8        0.0053        0.0001        1.9731        1.9732       1.967859       0.09136
  16     632.6        0.0058        0.0001        1.7337        1.7338       1.728052       0.08512
  15     656.4        0.0064        0.0001        1.5041        1.5042       1.497825       0.08172
  14     680.1        0.0072        0.0001        1.2888        1.2888       1.281641       0.07674
  13     703.9        0.0083        0.0001        1.0908        1.0908       1.082531       0.07068
  12     727.7        0.0099        0.0001        0.9082        0.9083       0.898347       0.06538
  11     751.5        0.0123        0.0001        0.7390        0.7391       0.726790       0.06090
  10     775.2        0.0159        0.0000        0.5856        0.5857       0.569728       0.05575
   9     799.0        0.0219        0.0000        0.4484        0.4484       0.426570       0.05082
   8     822.8        0.0138        0.0125        0.3034        0.3160       0.302186       0.04415
   7     846.6        0.0080        0.0163        0.1999        0.2162       0.208139       0.03338
   6     870.4        0.0037        0.0153        0.1280        0.1432       0.139558       0.02434
   5     894.1        0.0000        0.0122        0.0794        0.0916       0.091576       0.01703
   4     917.9        0.0000        0.0071        0.0513        0.0584       0.058390       0.01178
   3     941.7        0.0000        0.0039        0.0316        0.0356       0.035535       0.00811
   2     965.5        0.0000        0.0021        0.0186        0.0207       0.020626       0.00529
   1     989.2        0.0001        0.0010        0.0104        0.0115       0.011351       0.00329
   0    1013.0        0.0002        0.0005        0.0056        0.0060       0.005804       0.00197



 Wavenumbers:  4000. -  4650. cm-1, ATM      1
 LEVEL PRESSURE   UPWARD FLUX   DIFDOWN FLUX  DIRDOWN FLUX  DOWNWARD FLUX   NET FLUX    HEATING RATE
          mb          W/m2          W/m2          W/m2        W/m2          W/m2       degree/day
  60   .000300        1.5844        0.0000       14.6183       14.6183      13.033852       0.00000
  59    0.1000        1.5844        0.0000       14.6182       14.6182      13.033843       0.00076
  58    0.1403        1.5844        0.0000       14.6182       14.6182      13.033840       0.00076
  57    0.1968        1.5844        0.0000       14.6182       14.6182      13.033835       0.00077
  56    0.2760        1.5844        0.0000       14.6182       14.6182      13.033827       0.00076
  55    0.3871        1.5844        0.0000       14.6182       14.6182      13.033817       0.00080
  54    0.5430        1.5844        0.0000       14.6182       14.6182      13.033801       0.00085
