

 Wavenumbers:   820. - 50000. cm-1, ATM      1
 LEVEL PRESSURE   UPWARD FLUX   DIFDOWN FLUX  DIRDOWN FLUX  DOWNWARD FLUX   NET FLUX    HEATING RATE
          mb          W/m2          W/m2          W/m2        W/m2          W/m2       degree/day
  60   .000300      315.0448        0.0000      837.8224      837.8224     522.777635       0.00000
  59    0.1000      315.0401        0.0113      837.7137      837.7250     522.684856       7.85332
  58    0.1403      315.0386        0.0159      837.6563      837.6722     522.633641      10.72483
  57    0.1968      315.0366        0.0223      837.5614      837.5836     522.547082      12.92898
  56    0.2760      315.0342        0.0311      837.4070      837.4382     522.403973      15.24897
  55    0.3871      315.0314        0.0435      837.1641      837.2076     522.176202      17.30141
  54    0.5430      315.0283        0.0606      836.7876      836.8482     521.819875      19.28861
  53    0.7617      315.0260        0.0840      836.1942      836.2782     521.252138      21.90772
  52     1.069      315.0263        0.1161      835.2926      835.4087     520.382421      23.92332
  51     1.499      315.0331        0.1593      834.0471      834.2064     519.173302      23.71352
  50     2.102      315.0548        0.2175      832.4995      832.7171     517.662221      21.12695
  49     2.949      315.1076        0.2989      830.7483      831.0472     515.939526      17.17231
  48     4.137      315.2110        0.4119      828.8944      829.3063     514.095272      13.10537
  47     5.803      315.3771        0.5687      826.9459      827.5147     512.137583       9.91729
  46     8.139      315.6041        0.7869      824.8978      825.6847     510.080608       7.42890
  45     11.42      315.8813        1.0904      822.7006      823.7910     507.909713       5.58927
  44     16.01      316.2044        1.5120      820.2525      821.7644     505.560010       4.31291
  43     22.46      316.5692        2.0982      817.4463      819.5445     502.975377       3.38209
  42     31.51      316.9241        2.9136      814.2518      817.1654     500.241265       2.55055
  41     44.20      317.1631        4.0498      810.6480      814.6978     497.534642       1.80001
  40     62.00      317.2193        5.6179      806.4553      812.0732     494.853931       1.27096
  39     85.78      316.9370        7.6868      801.7674      809.4542     492.517181       0.82945
  38     109.5      316.4606        9.7606      797.4817      807.2423     490.781725       0.61602
  37     133.1      315.9504       11.7236      793.5510      805.2745     489.324149       0.52343
  36     156.8      315.4269       13.6026      789.8548      803.4574     488.030495       0.45873
  35     180.6      314.8328       15.5693      786.0084      801.5777     486.744903       0.45641
  34     202.8      314.2241       17.4350      782.2124      799.6474     485.423291       0.50179
  33     228.4      313.5862       19.3087      778.0467      797.3554     483.769232       0.54574
  32     252.2      312.9379       21.1580      773.4741      794.6321     481.694179       0.73656
  31     276.0      312.2895       22.9576      768.4389      791.3965     479.106973       0.91835
  30     299.8      311.6328       24.7435      762.7642      787.5077     475.874855       1.14727
  29     323.5      310.9784       26.5050      756.6288      783.1338     472.155327       1.32028
  28     347.3      310.3366       28.2237      750.2254      778.4491     468.112475       1.43505
  27     371.1      309.7107       29.8946      743.7251      773.6197     463.908923       1.49209
  26     394.9      309.0871       31.5626      736.8957      768.4584     459.371226       1.61070
  25     418.6      308.4797       33.2006      729.8721      763.0727     454.593032       1.69606
  24     442.4      307.8912       34.8117      722.6783      757.4899     449.598760       1.77276
  23     466.2      307.3214       36.4016      715.4381      751.8396     444.518282       1.80336
  22     489.9      306.7825       37.9492      708.2772      746.2263     439.443807       1.80123
  21     513.7      306.2716       39.4816      701.0441      740.5257     434.254086       1.84214
  20     537.5      305.8035       40.9759      693.8325      734.8084     429.004909       1.86324
  19     561.3      305.3844       42.4354      686.6319      729.0673     423.682928       1.88908
  18     585.0      305.0098       43.8920      679.3701      723.2621     418.252299       1.92765
  17     608.8      304.6941       45.3117      672.2525      717.5642     412.870099       1.91046
  16     632.6      304.4457       46.6957      665.2624      711.9581     407.512411       1.90176
  15     656.4      304.2784       48.0727      658.1915      706.2642     401.985781       1.96173
  14     680.1      304.2219       49.4150      651.1209      700.5360     396.314012       2.01324
  13     703.9      304.2998       50.7236      644.0582      694.7817     390.481976       2.07013
  12     727.7      304.5511       52.0182      636.8758      688.8940     384.342873       2.17913
  11     751.5      305.0460       53.2979      629.4911      682.7890     377.742995       2.34268
  10     775.2      305.8598       54.5470      621.9804      676.5274     370.667583       2.51148
   9     799.0      307.1076       55.7656      614.3441      670.1097     363.002109       2.72093
   8     822.8      233.2984      184.5885      404.1378      588.7263     355.427944       2.68852
   7     846.6      162.9234      246.1747      265.9504      512.1251     349.201709       2.21006
   6     870.4       94.8192      264.0253      175.0773      439.1026     344.283388       1.74580
   5     894.1       28.1416      253.4717      115.2879      368.7596     340.618051       1.30104
   4     917.9       27.5856      251.2304      113.9635      365.1939     337.608305       1.06834
   3     941.7       27.0391      249.0477      112.6647      361.7124     334.673313       1.04180
   2     965.5       26.5085      246.9296      111.3984      358.3281     331.819592       1.01295
   1     989.2       25.9962      244.8702      110.1637      355.0340     329.037728       0.98724
   0    1013.0       25.5061      242.8638      108.9580      351.8218     326.315708       0.96641



 Wavenumbers:  2600. -  3250. cm-1, ATM      1
 LEVEL PRESSURE   UPWARD FLUX   DIFDOWN FLUX  DIRDOWN FLUX  DOWNWARD FLUX   NET FLUX    HEATING RATE
          mb          W/m2          W/m2          W/m2        W/m2          W/m2       degree/day
  60   .000300        1.3272        0.0000        7.3841        7.3841       6.056824       0.00000
  59    0.1000        1.3272        0.0000        7.3840        7.3840       6.056752       0.00613
  58    0.1403        1.3272        0.0000        7.3840        7.3840       6.056723       0.00614
  57    0.1968        1.3272        0.0000        7.3839        7.3839       6.056681       0.00616
  56    0.2760        1.3272        0.0000        7.3839        7.3839       6.056624       0.00613
  55    0.3871        1.3272        0.0000        7.3838        7.3838       6.056539       0.00642
  54    0.5430        1.3272        0.0000        7.3837        7.3837       6.056414       0.00678
  53    0.7617        1.3272        0.0000        7.3835        7.3835       6.056217       0.00761
  52     1.069        1.3272        0.0000        7.3831        7.3831       6.055887       0.00908
  51     1.499        1.3272        0.0000        7.3825        7.3825       6.055278       0.01193
  50     2.102        1.3272        0.0000        7.3814        7.3814       6.054189       0.01522
  49     2.949        1.3272        0.0000        7.3795        7.3795       6.052304       0.01880
  48     4.137        1.3272        0.0000        7.3765        7.3765       6.049290       0.02142
  47     5.803        1.3272        0.0000        7.3721        7.3721       6.044859       0.02245
  46     8.139        1.3272        0.0000        7.3661        7.3661       6.038851       0.02170
  45     11.42        1.3272        0.0000        7.3586        7.3586       6.031344       0.01933
  44     16.01        1.3272        0.0000        7.3500        7.3500       6.022766       0.01574
  43     22.46        1.3273        0.0000        7.3407        7.3407       6.013448       0.01219
  42     31.51        1.3273        0.0000        7.3297        7.3297       6.002476       0.01023
  41     44.20        1.3273        0.0000        7.3134        7.3134       5.986112       0.01088
  40     62.00        1.3273        0.0000        7.2860        7.2860       5.958676       0.01301
  39     85.78        1.3275        0.0000        7.2438        7.2439       5.916429       0.01500
  38     109.5        1.3276        0.0000        7.1969        7.1970       5.869357       0.01671
  37     133.1        1.3278        0.0001        7.1517        7.1518       5.824033       0.01628
  36     156.8        1.3280        0.0001        7.1092        7.1093       5.781337       0.01514
  35     180.6        1.3282        0.0001        7.0662        7.0663       5.738065       0.01536
  34     202.8        1.3285        0.0001        7.0262        7.0262       5.697728       0.01532
  33     228.4        1.3290        0.0001        6.9846        6.9847       5.655759       0.01385
  32     252.2        1.3296        0.0001        6.9407        6.9408       5.611179       0.01582
  31     276.0        1.3304        0.0001        6.8941        6.8942       5.563807       0.01682
  30     299.8        1.3315        0.0001        6.8424        6.8426       5.511035       0.01873
  29     323.5        1.3329        0.0001        6.7849        6.7851       5.452109       0.02092
  28     347.3        1.3347        0.0001        6.7206        6.7208       5.386018       0.02346
  27     371.1        1.3369        0.0001        6.6496        6.6497       5.312824       0.02598
  26     394.9        1.3396        0.0002        6.5676        6.5677       5.228165       0.03005
  25     418.6        1.3428        0.0002        6.4741        6.4743       5.131492       0.03432
  24     442.4        1.3467        0.0002        6.3671        6.3673       5.020634       0.03935
  23     466.2        1.3512        0.0002        6.2486        6.2487       4.897475       0.04372
  22     489.9        1.3566        0.0002        6.1205        6.1206       4.764055       0.04736
  21     513.7        1.3630        0.0002        5.9812        5.9814       4.618382       0.05171
  20     537.5        1.3706        0.0002        5.8338        5.8340       4.463460       0.05499
  19     561.3        1.3794        0.0002        5.6819        5.6821       4.302639       0.05708
  18     585.0        1.3899        0.0002        5.5274        5.5276       4.137766       0.05852
  17     608.8        1.4018        0.0002        5.3761        5.3763       3.974464       0.05797
  16     632.6        1.4155        0.0002        5.2281        5.2283       3.812793       0.05739
  15     656.4        1.4318        0.0002        5.0791        5.0793       3.647506       0.05867
  14     680.1        1.4511        0.0002        4.9299        4.9301       3.478984       0.05982
  13     703.9        1.4741        0.0002        4.7798        4.7800       3.305844       0.06146
  12     727.7        1.5024        0.0002        4.6253        4.6255       3.123075       0.06488
  11     751.5        1.5380        0.0002        4.4633        4.4635       2.925445       0.07015
  10     775.2        1.5831        0.0002        4.2949        4.2951       2.711924       0.07579
   9     799.0        1.6413        0.0002        4.1205        4.1207       2.479424       0.08253
   8     822.8        1.2072        0.8295        2.6270        3.4565       2.249352       0.08167
   7     846.6        0.8141        1.2004        1.6749        2.8754       2.061252       0.06677
   6     870.4        0.4478        1.2933        1.0686        2.3620       1.914186       0.05220
   5     894.1        0.0978        1.2214        0.6825        1.9039       1.806075       0.03838
   4     917.9        0.1005        1.1652        0.6543        1.8194       1.718912       0.03094
   3     941.7        0.1036        1.1121        0.6272        1.7393       1.635687       0.02954
   2     965.5        0.1073        1.0619        0.6014        1.6634       1.556122       0.02824
   1     989.2        0.1115        1.0144        0.5769        1.5913       1.479841       0.02707
   0    1013.0        0.1165        0.9692        0.5534        1.5227       1.406146       0.02616



 Wavenumbers:  3250. -  4000. cm-1, ATM      1
 LEVEL PRESSURE   UPWARD FLUX   DIFDOWN FLUX  DIRDOWN FLUX  DOWNWARD FLUX   NET FLUX    HEATING RATE
          mb          W/m2          W/m2          W/m2        W/m2          W/m2       degree/day
  60   .000300        0.0148        0.0000       12.4485       12.4485      12.433623       0.00000
  59    0.1000        0.0148        0.0000       12.4290       12.4290      12.414121       1.65079
  58    0.1403        0.0148        0.0000       12.4252       12.4252      12.410406       0.77776
  57    0.1968        0.0148        0.0000       12.4208       12.4208      12.405934       0.66803
  56    0.2760        0.0148        0.0000       12.4156       12.4156      12.400771       0.55013
  55    0.3871        0.0148        0.0000       12.4096       12.4096      12.394738       0.45825
  54    0.5430        0.0148        0.0000       12.4022       12.4022      12.387410       0.39669
  53    0.7617        0.0148        0.0000       12.3928       12.3928      12.377950       0.36506
  52     1.069        0.0148        0.0000       12.3807       12.3807      12.365909       0.33119
  51     1.499        0.0148        0.0000       12.3664       12.3664      12.351552       0.28159
  50     2.102        0.0148        0.0000       12.3498       12.3498      12.334918       0.23256
  49     2.949        0.0148        0.0000       12.3302       12.3302      12.315383       0.19473
  48     4.137        0.0148        0.0000       12.3067       12.3068      12.291918       0.16675
  47     5.803        0.0148        0.0000       12.2766       12.2766      12.261800       0.15257
  46     8.139        0.0148        0.0000       12.2347       12.2348      12.219932       0.15121
  45     11.42        0.0148        0.0000       12.1733       12.1733      12.158519       0.15812
  44     16.01        0.0148        0.0000       12.0830       12.0830      12.068208       0.16577
  43     22.46        0.0148        0.0000       11.9527       11.9527      11.937918       0.17049
  42     31.51        0.0148        0.0000       11.7748       11.7748      11.760033       0.16594
  41     44.20        0.0148        0.0001       11.5551       11.5552      11.540396       0.14607
  40     62.00        0.0148        0.0001       11.3050       11.3051      11.290328       0.11856
  39     85.78        0.0147        0.0001       11.0142       11.0143      10.999540       0.10322
  38     109.5        0.0147        0.0001       10.7175       10.7176      10.702920       0.10529
  37     133.1        0.0147        0.0002       10.4459       10.4460      10.431373       0.09752
  36     156.8        0.0146        0.0002       10.1944       10.1946      10.179985       0.08914
  35     180.6        0.0146        0.0002        9.9218        9.9220       9.907426       0.09676
  34     202.8        0.0146        0.0002        9.5970        9.5973       9.582655       0.12331
  33     228.4        0.0146        0.0002        9.1820        9.1823       9.167716       0.13690
  32     252.2        0.0146        0.0003        8.7004        8.7006       8.686069       0.17096
  31     276.0        0.0146        0.0003        8.1693        8.1695       8.154985       0.18851
  30     299.8        0.0146        0.0003        7.5886        7.5889       7.574315       0.20611
  29     323.5        0.0146        0.0003        6.9823        6.9825       6.967953       0.21523
  28     347.3        0.0146        0.0003        6.3629        6.3631       6.348490       0.21988
  27     371.1        0.0147        0.0002        5.7699        5.7701       5.755443       0.21051
  26     394.9        0.0148        0.0002        5.2041        5.2043       5.189500       0.20089
  25     418.6        0.0149        0.0002        4.6962        4.6964       4.681440       0.18034
  24     442.4        0.0151        0.0002        4.2409        4.2411       4.225965       0.16168
  23     466.2        0.0154        0.0002        3.8328        3.8330       3.817535       0.14498
  22     489.9        0.0158        0.0002        3.4648        3.4650       3.449252       0.13073
  21     513.7        0.0163        0.0002        3.1218        3.1220       3.105728       0.12194
  20     537.5        0.0169        0.0002        2.8040        2.8042       2.787296       0.11303
  19     561.3        0.0177        0.0002        2.5083        2.5084       2.490735       0.10527
  18     585.0        0.0187        0.0001        2.2301        2.2302       2.211493       0.09912
  17     608.8        0.0201        0.0001        1.9731        1.9732       1.953143       0.09170
  16     632.6        0.0218        0.0001        1.7337        1.7338       1.712084       0.08557
  15     656.4        0.0240        0.0001        1.5041        1.5042       1.480187       0.08231
  14     680.1        0.0271        0.0001        1.2888        1.2888       1.261752       0.07754
  13     703.9        0.0313        0.0001        1.0908        1.0909       1.059568       0.07177
  12     727.7        0.0373        0.0001        0.9082        0.9083       0.870999       0.06693
  11     751.5        0.0462        0.0001        0.7390        0.7391       0.692873       0.06323
  10     775.2        0.0600        0.0000        0.5856        0.5857       0.525675       0.05935
   9     799.0        0.0823        0.0000        0.4484        0.4484       0.366133       0.05663
   8     822.8        0.0461        0.0568        0.2193        0.2761       0.230029       0.04831
   7     846.6        0.0240        0.0586        0.1044        0.1630       0.139023       0.03230
   6     870.4        0.0101        0.0437        0.0483        0.0920       0.081960       0.02026
   5     894.1        0.0000        0.0275        0.0216        0.0492       0.049144       0.01165
   4     917.9        0.0000        0.0161        0.0140        0.0300       0.030030       0.00678
   3     941.7        0.0000        0.0089        0.0086        0.0175       0.017461       0.00446
   2     965.5        0.0000        0.0046        0.0051        0.0097       0.009650       0.00277
   1     989.2        0.0001        0.0023        0.0028        0.0051       0.005019       0.00164
   0    1013.0        0.0002        0.0010        0.0015        0.0026       0.002351       0.00095



 Wavenumbers:  4000. -  4650. cm-1, ATM      1
 LEVEL PRESSURE   UPWARD FLUX   DIFDOWN FLUX  DIRDOWN FLUX  DOWNWARD FLUX   NET FLUX    HEATING RATE
          mb          W/m2          W/m2          W/m2        W/m2          W/m2       degree/day
  60   .000300        4.4378        0.0000       14.6183       14.6183      10.180418       0.00000
  59    0.1000        4.4378        0.0000       14.6182       14.6182      10.180409       0.00076
  58    0.1403        4.4378        0.0000       14.6182       14.6182      10.180405       0.00077
  57    0.1968        4.4378        0.0000       14.6182       14.6182      10.180400       0.00077
  56    0.2760        4.4378        0.0000       14.6182       14.6182      10.180393       0.00076
  55    0.3871        4.4378        0.0000       14.6182       14.6182      10.180382       0.00080
  54    0.5430        4.4378        0.0000       14.6182       14.6182      10.180367       0.00085
