

 Wavenumbers:   820. - 50000. cm-1, ATM      1
 LEVEL PRESSURE   UPWARD FLUX   DIFDOWN FLUX  DIRDOWN FLUX  DOWNWARD FLUX   NET FLUX    HEATING RATE
          mb          W/m2          W/m2          W/m2        W/m2          W/m2       degree/day
  60   .000300      191.8571        0.0000      837.8224      837.8224     645.965314       0.00000
  59    0.1000      191.8513        0.0104      837.7137      837.7241     645.872764       7.83387
  58    0.1403      191.8492        0.0146      837.6563      837.6710     645.821727      10.68762
  57    0.1968      191.8464        0.0205      837.5614      837.5819     645.735487      12.88132
  56    0.2760      191.8428        0.0287      837.4070      837.4357     645.592936      15.18947
  55    0.3871      191.8381        0.0401      837.1641      837.2042     645.366106      17.23002
  54    0.5430      191.8321        0.0558      836.7876      836.8434     645.011353      19.20339
  53    0.7617      191.8250        0.0773      836.1942      836.2714     644.446392      21.80061
  52     1.069      191.8176        0.1067      835.2926      835.3993     643.581655      23.78631
  51     1.499      191.8118        0.1461      834.0471      834.1932     642.381427      23.53915
  50     2.102      191.8121        0.1991      832.4995      832.6986     640.886524      20.90077
  49     2.949      191.8274        0.2729      830.7483      831.0212     639.193876      16.87279
  48     4.137      191.8686        0.3755      828.8944      829.2699     637.401354      12.73775
  47     5.803      191.9408        0.5177      826.9459      827.4637     635.522878       9.51602
  46     8.139      192.0389        0.7154      824.8978      825.6133     633.574324       7.03733
  45     11.42      192.1504        0.9903      822.7006      823.6908     631.540412       5.23659
  44     16.01      192.2651        1.3716      820.2525      821.6240     629.358900       4.00420
  43     22.46      192.3699        1.9014      817.4463      819.3477     626.977825       3.11572
  42     31.51      192.4163        2.6374      814.2518      816.8891     624.472801       2.33684
  41     44.20      192.3135        3.6615      810.6480      814.3095     621.996008       1.64716
  40     62.00      191.9903        5.0728      806.4553      811.5282     619.537922       1.16541
  39     85.78      191.3250        6.9313      801.7674      808.6987     617.373656       0.76823
  38     109.5      190.5244        8.7900      797.4817      806.2717     615.747329       0.57728
  37     133.1      189.7205       10.5455      793.5510      804.0965     614.375938       0.49248
  36     156.8      188.9211       12.2222      789.8548      802.0770     613.155934       0.43261
  35     180.6      188.0472       13.9736      786.0084      799.9820     611.934744       0.43354
  34     202.8      187.1820       15.6313      782.2124      797.8437     610.661673       0.48336
  33     228.4      186.2884       17.2925      778.0467      795.3392     609.050798       0.53149
  32     252.2      185.3865       18.9283      773.4741      792.4024     607.015941       0.72229
  31     276.0      184.4897       20.5166      768.4389      788.9555     604.465779       0.90520
  30     299.8      183.5831       22.0891      762.7642      784.8533     601.270205       1.13430
  29     323.5      182.6758       23.6364      756.6288      780.2652     597.589344       1.30655
  28     347.3      181.7796       25.1424      750.2254      775.3679     593.588243       1.42023
  27     371.1      180.8982       26.6030      743.7251      770.3281     589.429825       1.47607
  26     394.9      180.0098       28.0574      736.8957      764.9531     584.943317       1.59253
  25     418.6      179.1307       29.4819      729.8721      759.3540     580.223289       1.67542
  24     442.4      178.2615       30.8793      722.6783      753.5575     575.296024       1.74898
  23     466.2      177.4002       32.2546      715.4381      747.6927     570.292484       1.77605
  22     489.9      176.5608       33.5897      708.2772      741.8668     565.306031       1.76999
  21     513.7      175.7321       34.9080      701.0441      735.9521     560.219975       1.80534
  20     537.5      174.9302       36.1898      693.8325      730.0223     555.092039       1.82021
  19     561.3      174.1575       37.4381      686.6319      724.0700     549.912496       1.83852
  18     585.0      173.3995       38.6802      679.3701      718.0503     544.650852       1.86767
  17     608.8      172.6766       39.8872      672.2525      712.1397     539.463064       1.84145
  16     632.6      171.9931       41.0603      665.2624      706.3227     534.329590       1.82217
  15     656.4      171.3442       42.2237      658.1915      700.4151     529.070958       1.86660
  14     680.1      170.7562       43.3540      651.1209      694.4749     523.718767       1.89981
  13     703.9      170.2407       44.4523      644.0582      688.5104     518.269772       1.93417
  12     727.7      169.8086       45.5350      636.8758      682.4109     512.602214       2.01175
  11     751.5      169.4947       46.6015      629.4911      676.0926     506.597872       2.13129
  10     775.2      169.3423       47.6385      621.9804      669.6188     500.276519       2.24382
   9     799.0      169.4068       48.6461      614.3441      662.9902     493.583494       2.37575
   8     822.8      131.6474      399.0677      215.2763      614.3440     482.696564       3.86441
   7     846.6       95.5489      493.7015       75.5228      569.2243     473.675379       3.20215
   6     870.4       60.6735      500.3779       26.5257      526.9036     466.230157       2.64275
   5     894.1       26.6614      477.4647        9.3254      486.7901     460.128717       2.16576
   4     917.9       25.8694      472.9366        9.2223      482.1589     456.289504       1.36276
   3     941.7       25.0853      468.5151        9.1210      477.6361     452.550777       1.32709
   2     965.5       24.3171      464.2180        9.0222      473.2402     448.923121       1.28767
   1     989.2       23.5668      460.0371        8.9257      468.9628     445.395962       1.25173
   0    1013.0       22.8379      455.9619        8.8314      464.7933     441.955353       1.22153



 Wavenumbers:  2600. -  3250. cm-1, ATM      1
 LEVEL PRESSURE   UPWARD FLUX   DIFDOWN FLUX  DIRDOWN FLUX  DOWNWARD FLUX   NET FLUX    HEATING RATE
          mb          W/m2          W/m2          W/m2        W/m2          W/m2       degree/day
  60   .000300        0.1968        0.0000        7.3841        7.3841       7.187246       0.00000
  59    0.1000        0.1968        0.0000        7.3840        7.3840       7.187174       0.00613
  58    0.1403        0.1968        0.0000        7.3840        7.3840       7.187145       0.00614
  57    0.1968        0.1968        0.0000        7.3839        7.3839       7.187103       0.00616
  56    0.2760        0.1968        0.0000        7.3839        7.3839       7.187046       0.00613
  55    0.3871        0.1968        0.0000        7.3838        7.3838       7.186961       0.00641
  54    0.5430        0.1968        0.0000        7.3837        7.3837       7.186836       0.00678
  53    0.7617        0.1968        0.0000        7.3835        7.3835       7.186639       0.00761
  52     1.069        0.1968        0.0000        7.3831        7.3831       7.186309       0.00908
  51     1.499        0.1968        0.0000        7.3825        7.3825       7.185700       0.01193
  50     2.102        0.1968        0.0000        7.3814        7.3814       7.184612       0.01522
  49     2.949        0.1968        0.0000        7.3795        7.3795       7.182726       0.01880
  48     4.137        0.1968        0.0000        7.3765        7.3765       7.179712       0.02142
  47     5.803        0.1968        0.0000        7.3721        7.3721       7.175281       0.02245
  46     8.139        0.1968        0.0000        7.3661        7.3661       7.169274       0.02169
  45     11.42        0.1968        0.0000        7.3586        7.3586       7.161769       0.01932
  44     16.01        0.1968        0.0000        7.3500        7.3500       7.153195       0.01574
  43     22.46        0.1968        0.0000        7.3407        7.3407       7.143882       0.01219
  42     31.51        0.1968        0.0000        7.3297        7.3297       7.132923       0.01022
  41     44.20        0.1968        0.0000        7.3134        7.3134       7.116584       0.01087
  40     62.00        0.1968        0.0000        7.2860        7.2860       7.089199       0.01298
  39     85.78        0.1968        0.0000        7.2438        7.2439       7.047047       0.01496
  38     109.5        0.1968        0.0000        7.1969        7.1969       7.000101       0.01666
  37     133.1        0.1969        0.0000        7.1517        7.1518       6.954926       0.01622
  36     156.8        0.1969        0.0001        7.1092        7.1093       6.912401       0.01508
  35     180.6        0.1969        0.0001        7.0662        7.0663       6.869345       0.01529
  34     202.8        0.1970        0.0001        7.0262        7.0262       6.829271       0.01522
  33     228.4        0.1970        0.0001        6.9846        6.9847       6.787682       0.01372
  32     252.2        0.1971        0.0001        6.9407        6.9408       6.743653       0.01563
  31     276.0        0.1972        0.0001        6.8941        6.8942       6.696987       0.01656
  30     299.8        0.1974        0.0001        6.8424        6.8426       6.645147       0.01840
  29     323.5        0.1976        0.0001        6.7849        6.7850       6.587420       0.02049
  28     347.3        0.1979        0.0001        6.7206        6.7207       6.522840       0.02292
  27     371.1        0.1982        0.0001        6.6496        6.6497       6.451475       0.02533
  26     394.9        0.1986        0.0001        6.5676        6.5677       6.369075       0.02925
  25     418.6        0.1991        0.0001        6.4741        6.4743       6.275120       0.03335
  24     442.4        0.1997        0.0001        6.3671        6.3673       6.167537       0.03819
  23     466.2        0.2005        0.0001        6.2486        6.2487       6.048234       0.04235
  22     489.9        0.2013        0.0002        6.1205        6.1206       5.919317       0.04576
  21     513.7        0.2023        0.0002        5.9812        5.9813       5.779028       0.04980
  20     537.5        0.2035        0.0002        5.8338        5.8340       5.630473       0.05273
  19     561.3        0.2049        0.0002        5.6819        5.6820       5.477116       0.05444
  18     585.0        0.2066        0.0002        5.5274        5.5276       5.321009       0.05541
  17     608.8        0.2085        0.0002        5.3761        5.3762       5.167737       0.05441
  16     632.6        0.2107        0.0002        5.2281        5.2283       5.017568       0.05330
  15     656.4        0.2133        0.0002        5.0791        5.0793       4.865939       0.05382
  14     680.1        0.2164        0.0002        4.9299        4.9300       4.713601       0.05407
  13     703.9        0.2202        0.0002        4.7798        4.7799       4.559763       0.05461
  12     727.7        0.2248        0.0002        4.6253        4.6254       4.400644       0.05648
  11     751.5        0.2307        0.0002        4.4633        4.4634       4.232783       0.05958
  10     775.2        0.2381        0.0002        4.2949        4.2950       4.056894       0.06243
   9     799.0        0.2479        0.0002        4.1205        4.1207       3.872841       0.06533
   8     822.8        0.1511        1.3444        1.2755        2.6199       2.468884       0.49835
   7     846.6        0.0886        1.2551        0.3949        1.6500       1.561410       0.32212
   6     870.4        0.0464        0.9087        0.1224        1.0311       0.984660       0.20472
   5     894.1        0.0147        0.6025        0.0379        0.6405       0.625784       0.12739
   4     917.9        0.0151        0.5757        0.0364        0.6121       0.596973       0.01023
   3     941.7        0.0156        0.5503        0.0349        0.5852       0.569560       0.00973
   2     965.5        0.0162        0.5262        0.0334        0.5597       0.543497       0.00925
   1     989.2        0.0168        0.5035        0.0321        0.5355       0.518696       0.00880
   0    1013.0        0.0176        0.4818        0.0308        0.5125       0.494916       0.00844



 Wavenumbers:  3250. -  4000. cm-1, ATM      1
 LEVEL PRESSURE   UPWARD FLUX   DIFDOWN FLUX  DIRDOWN FLUX  DOWNWARD FLUX   NET FLUX    HEATING RATE
          mb          W/m2          W/m2          W/m2        W/m2          W/m2       degree/day
  60   .000300        0.0020        0.0000       12.4485       12.4485      12.446415       0.00000
  59    0.1000        0.0020        0.0000       12.4290       12.4290      12.426913       1.65079
  58    0.1403        0.0020        0.0000       12.4252       12.4252      12.423198       0.77776
  57    0.1968        0.0020        0.0000       12.4208       12.4208      12.418726       0.66803
  56    0.2760        0.0020        0.0000       12.4156       12.4156      12.413563       0.55013
  55    0.3871        0.0020        0.0000       12.4096       12.4096      12.407530       0.45825
  54    0.5430        0.0020        0.0000       12.4022       12.4022      12.400202       0.39669
  53    0.7617        0.0020        0.0000       12.3928       12.3928      12.390742       0.36506
  52     1.069        0.0020        0.0000       12.3807       12.3807      12.378701       0.33119
  51     1.499        0.0020        0.0000       12.3664       12.3664      12.364344       0.28159
  50     2.102        0.0020        0.0000       12.3498       12.3498      12.347710       0.23256
  49     2.949        0.0020        0.0000       12.3302       12.3302      12.328175       0.19473
  48     4.137        0.0020        0.0000       12.3067       12.3068      12.304710       0.16675
  47     5.803        0.0020        0.0000       12.2766       12.2766      12.274592       0.15257
  46     8.139        0.0020        0.0000       12.2347       12.2348      12.232724       0.15121
  45     11.42        0.0020        0.0000       12.1733       12.1733      12.171311       0.15812
  44     16.01        0.0020        0.0000       12.0830       12.0830      12.081000       0.16577
  43     22.46        0.0020        0.0000       11.9527       11.9527      11.950710       0.17049
  42     31.51        0.0020        0.0000       11.7748       11.7748      11.772825       0.16594
  41     44.20        0.0020        0.0001       11.5551       11.5552      11.553188       0.14607
  40     62.00        0.0020        0.0001       11.3050       11.3051      11.303120       0.11856
  39     85.78        0.0019        0.0001       11.0142       11.0143      11.012332       0.10322
  38     109.5        0.0019        0.0001       10.7175       10.7176      10.715712       0.10529
  37     133.1        0.0019        0.0002       10.4459       10.4460      10.444166       0.09752
  36     156.8        0.0019        0.0002       10.1944       10.1946      10.192778       0.08914
  35     180.6        0.0018        0.0002        9.9218        9.9220       9.920220       0.09676
  34     202.8        0.0018        0.0002        9.5970        9.5973       9.595450       0.12331
  33     228.4        0.0018        0.0002        9.1820        9.1823       9.180513       0.13690
  32     252.2        0.0018        0.0003        8.7004        8.7006       8.698872       0.17096
  31     276.0        0.0017        0.0003        8.1693        8.1695       8.167799       0.18851
  30     299.8        0.0017        0.0003        7.5886        7.5889       7.587148       0.20611
  29     323.5        0.0017        0.0003        6.9823        6.9825       6.980818       0.21522
  28     347.3        0.0017        0.0003        6.3629        6.3631       6.361406       0.21987
  27     371.1        0.0017        0.0002        5.7699        5.7701       5.768430       0.21048
  26     394.9        0.0017        0.0002        5.2041        5.2043       5.202591       0.20085
  25     418.6        0.0017        0.0002        4.6962        4.6964       4.694673       0.18029
  24     442.4        0.0017        0.0002        4.2409        4.2411       4.239391       0.16161
  23     466.2        0.0017        0.0002        3.8328        3.8330       3.831217       0.14489
  22     489.9        0.0018        0.0002        3.4648        3.4650       3.463262       0.13061
  21     513.7        0.0018        0.0002        3.1218        3.1220       3.120169       0.12178
  20     537.5        0.0019        0.0002        2.8040        2.8042       2.802294       0.11283
  19     561.3        0.0020        0.0002        2.5083        2.5084       2.506452       0.10501
  18     585.0        0.0021        0.0001        2.2301        2.2302       2.228148       0.09879
  17     608.8        0.0022        0.0001        1.9731        1.9732       1.970986       0.09128
  16     632.6        0.0024        0.0001        1.7337        1.7338       1.731445       0.08503
  15     656.4        0.0026        0.0001        1.5041        1.5042       1.501573       0.08160
  14     680.1        0.0030        0.0001        1.2888        1.2888       1.285867       0.07657
  13     703.9        0.0034        0.0001        1.0908        1.0908       1.087410       0.07044
  12     727.7        0.0041        0.0001        0.9082        0.9083       0.904157       0.06505
  11     751.5        0.0051        0.0001        0.7390        0.7391       0.733994       0.06040
  10     775.2        0.0066        0.0000        0.5856        0.5857       0.579082       0.05499
   9     799.0        0.0090        0.0000        0.4484        0.4484       0.439389       0.04959
   8     822.8        0.0041        0.1055        0.1099        0.2154       0.211336       0.08095
   7     846.6        0.0018        0.0734        0.0262        0.0996       0.097809       0.04030
   6     870.4        0.0007        0.0382        0.0061        0.0443       0.043641       0.01923
   5     894.1        0.0000        0.0175        0.0014        0.0189       0.018900       0.00878
   4     917.9        0.0000        0.0111        0.0009        0.0119       0.011944       0.00247
   3     941.7        0.0000        0.0067        0.0005        0.0072       0.007202       0.00168
   2     965.5        0.0000        0.0038        0.0003        0.0042       0.004142       0.00109
   1     989.2        0.0000        0.0021        0.0002        0.0023       0.002259       0.00067
   0    1013.0        0.0000        0.0011        0.0001        0.0012       0.001147       0.00040



 Wavenumbers:  4000. -  4650. cm-1, ATM      1
 LEVEL PRESSURE   UPWARD FLUX   DIFDOWN FLUX  DIRDOWN FLUX  DOWNWARD FLUX   NET FLUX    HEATING RATE
          mb          W/m2          W/m2          W/m2        W/m2          W/m2       degree/day
  60   .000300        2.2286        0.0000       14.6183       14.6183      12.389637       0.00000
  59    0.1000        2.2286        0.0000       14.6182       14.6182      12.389628       0.00076
  58    0.1403        2.2286        0.0000       14.6182       14.6182      12.389624       0.00076
  57    0.1968        2.2286        0.0000       14.6182       14.6182      12.389619       0.00077
  56    0.2760        2.2286        0.0000       14.6182       14.6182      12.389612       0.00076
  55    0.3871        2.2286        0.0000       14.6182       14.6182      12.389602       0.00080
  54    0.5430        2.2286        0.0000       14.6182       14.6182      12.389586       0.00085
